Point in Time[s],Power Consumption[W]
4.748,101.0
15.217,115.0
24.939,81.0
34.71,86.0
44.706,84.0
54.71,101.0
64.734,81.0
74.705,82.0
84.712,84.0
94.707,100.0
104.705,90.0
114.704,85.0
124.735,129.0
135.463,110.0
144.88,88.0
154.706,89.0
164.705,84.0
174.708,111.0
184.732,103.0
194.705,90.0
204.707,123.0
214.704,165.0
224.704,163.0
234.727,154.0
244.788,92.0
255.316,105.0
264.935,155.0
274.705,102.0
284.705,102.0
294.706,86.0
304.73,82.0
314.707,85.0
324.706,83.0
334.713,83.0
344.707,94.0
354.708,85.0
364.732,128.0
375.259,116.0
385.041,96.0
394.708,82.0
404.713,106.0
414.712,84.0
424.739,101.0
434.712,97.0
444.715,122.0
454.708,85.0
464.713,84.0
474.728,89.0
484.761,106.0
495.276,83.0
504.975,157.0
514.712,101.0
524.711,150.0
534.71,89.0
544.735,135.0
554.711,112.0
564.711,162.0
574.712,159.0
584.713,129.0
594.729,127.0
604.755,120.0
615.405,115.0
624.832,83.0
634.712,88.0
644.713,83.0
654.712,92.0
664.739,83.0
674.712,83.0
684.713,83.0
694.714,81.0
704.715,86.0
714.713,81.0
724.737,88.0
735.371,109.0
744.96,82.0
754.715,84.0
764.717,91.0
774.717,83.0
784.742,89.0
794.724,86.0
804.717,86.0
814.719,86.0
824.72,85.0
834.721,88.0
844.745,153.0
855.454,94.0
864.974,88.0
874.717,99.0
884.717,101.0
894.718,133.0
904.741,165.0
914.718,127.0
924.719,133.0
934.721,160.0
944.727,150.0
954.719,83.0
964.743,127.0
975.419,107.0
984.967,83.0
994.719,82.0
1004.723,92.0
1014.72,83.0
1024.744,83.0
1034.721,101.0
1044.726,84.0
1054.724,95.0
1064.721,82.0
1074.733,82.0
1084.762,132.0
1095.349,135.0
1104.966,83.0
1114.72,85.0
1124.721,85.0
1134.727,92.0
1144.756,106.0
1154.721,89.0
1164.719,94.0
1174.72,91.0
1184.723,88.0
1194.723,91.0
1204.759,102.0
1215.328,99.0
1224.995,127.0
1234.723,141.0
1244.728,139.0
1254.722,125.0
1264.752,171.0
1274.723,169.0
1284.723,84.0
1294.724,100.0
1304.722,85.0
1314.724,82.0
1324.749,113.0
1335.35,98.0
1344.974,93.0
1354.729,88.0
1364.723,92.0
1374.725,82.0
1384.742,101.0
1394.729,122.0
1404.725,84.0
1414.725,83.0
1424.726,81.0
1434.728,80.0
1444.752,101.0
1455.517,89.0
1465.053,88.0
1474.725,81.0
1484.724,94.0
1494.726,88.0
1504.749,89.0
1514.724,84.0
1524.726,85.0
1534.725,91.0
1544.725,99.0
1554.725,105.0
1564.754,83.0
1575.363,99.0
1584.98,124.0
1594.726,164.0
1604.724,156.0
1614.725,88.0
1624.751,83.0
1634.726,84.0
1644.727,85.0
1654.729,97.0
1664.724,89.0
1674.726,82.0
1684.809,92.0
1695.421,104.0
1704.97,130.0
1714.728,101.0
1724.726,83.0
1734.727,81.0
1744.751,101.0
1754.733,81.0
1764.726,82.0
1774.729,100.0
1784.728,82.0
1794.728,82.0
1804.753,129.0
1815.215,135.0
1824.729,139.0
1834.728,141.0
1844.729,93.0
1854.729,102.0
1864.752,87.0
1874.732,86.0
1884.733,99.0
1894.729,97.0
1904.729,109.0
1914.746,130.0
1924.786,97.0
1935.455,96.0
1945.09,117.0
1954.731,81.0
1964.731,84.0
1974.732,121.0
1984.758,86.0
1994.731,86.0
2004.733,86.0
2014.735,89.0
2024.734,92.0
2034.74,83.0
2044.776,109.0
2055.366,118.0
2064.983,83.0
2074.732,86.0
2084.734,83.0
2094.736,103.0
2104.76,103.0
2114.735,94.0
2124.734,89.0
2134.735,83.0
2144.734,90.0
2154.738,87.0
2164.762,98.0
2175.407,92.0
2185.077,89.0
2194.735,84.0
2204.735,121.0
2214.735,141.0
2224.759,85.0
2234.736,92.0
2244.736,112.0
2254.734,112.0
2264.739,112.0
2274.737,96.0
2284.761,101.0
2295.489,122.0
2304.946,84.0
2314.736,88.0
2324.74,91.0
2334.737,87.0
2344.763,84.0
2354.737,86.0
2364.739,96.0
2374.738,121.0
2384.74,84.0
2394.739,84.0
2404.765,102.0
2415.53,99.0
2424.988,84.0
2434.74,82.0
2444.746,86.0
2454.739,84.0
2464.763,85.0
2474.739,81.0
2484.737,86.0
2494.739,85.0
2504.738,90.0
2514.741,85.0
2524.782,108.0
2535.348,139.0
2545.029,85.0
2554.739,90.0
2564.741,104.0
2574.74,131.0
2584.768,104.0
2594.739,163.0
2604.74,98.0
2614.74,153.0
2624.739,132.0
2634.739,94.0
2644.765,102.0
2655.376,105.0
2665.018,83.0
2674.741,98.0
2684.741,90.0
2694.743,82.0
2704.768,101.0
2714.746,87.0
2724.746,87.0
2734.744,83.0
2744.743,83.0
2754.742,81.0
2764.775,108.0
2775.457,141.0
2785.041,83.0
2794.742,83.0
2804.745,92.0
2814.743,84.0
2824.768,86.0
2834.743,84.0
2844.741,84.0
2854.743,87.0
2864.741,86.0
2874.741,83.0
2884.768,89.0
2895.394,84.0
2905.112,83.0
2914.745,107.0
2924.742,100.0
2934.744,151.0
2944.774,156.0
2954.744,163.0
2964.748,162.0
2974.754,96.0
2984.747,89.0
2994.748,84.0
3004.772,105.0
3015.309,103.0
3024.99,130.0
3034.744,85.0
3044.746,86.0
3054.746,102.0
3064.775,86.0
3074.747,90.0
3084.749,86.0
3094.747,81.0
3104.746,96.0
3114.744,86.0
3124.77,121.0
3135.383,86.0
3144.995,82.0
3154.747,120.0
3164.77,83.0
3174.748,84.0
3184.776,91.0
3194.749,85.0
3204.772,90.0
3214.748,99.0
3224.77,149.0
3234.746,164.0
3244.772,83.0
3255.418,83.0
3265.006,86.0
3274.747,108.0
3284.774,148.0
3294.783,116.0
3304.826,164.0
3314.755,162.0
3324.777,84.0
3334.749,81.0
3344.77,85.0
3354.747,84.0
3364.772,92.0
3375.345,96.0
3385.37,84.0
3394.752,82.0
3404.773,82.0
3414.756,81.0
3424.78,83.0
3434.749,84.0
3444.77,82.0
3454.752,83.0
3464.773,83.0
3474.75,83.0
3484.776,99.0
3495.589,133.0
3505.608,88.0
3514.752,86.0
3524.765,86.0
3534.75,90.0
3544.774,92.0
3554.766,89.0
3564.779,92.0
3574.754,109.0
3584.768,84.0
3594.772,106.0
3604.797,117.0
3615.41,92.0
3625.43,134.0
3634.749,154.0
3644.762,162.0
3654.751,159.0
3664.775,82.0
3674.752,83.0
3684.766,86.0
3694.754,81.0
3704.772,101.0
3714.763,83.0
3724.789,96.0
3735.543,90.0
3745.568,82.0
3754.753,86.0
3764.767,79.0
3774.754,96.0
3784.779,84.0
3794.755,83.0
3804.776,93.0
3814.757,86.0
3824.77,81.0
3834.756,83.0
3844.781,128.0
3855.413,101.0
3865.438,83.0
3874.757,83.0
3884.771,91.0
3894.756,84.0
3904.783,115.0
3914.755,89.0
3924.769,91.0
3934.759,90.0
3944.772,82.0
3954.757,84.0
3964.785,84.0
3975.56,138.0
3985.593,85.0
3994.757,95.0
4004.771,83.0
4014.757,83.0
4024.781,103.0
4034.757,104.0
4044.77,128.0
4054.759,109.0
4064.777,94.0
4074.779,82.0
4084.816,82.0
4095.473,88.0
4101.882,89.0
4114.762,84.0
4121.946,141.0
4134.759,84.0
4144.783,88.0
4154.759,88.0
4161.977,86.0
4174.759,88.0
4181.989,92.0
4194.782,88.0
4204.813,89.0
4215.367,89.0
4222.13,91.0
4234.762,88.0
4242.198,92.0
4254.762,86.0
4264.782,91.0
4274.763,87.0
4282.221,84.0
4294.764,92.0
4302.236,83.0
4314.766,99.0
4324.79,104.0
4335.455,133.0
4342.372,120.0
4354.768,85.0
4362.429,92.0
4374.769,82.0
4384.793,83.0
4394.767,85.0
4402.461,85.0
4414.769,104.0
4422.477,84.0
4434.769,87.0
4444.796,143.0
4455.469,141.0
4465.489,128.0
4474.769,102.0
4482.676,81.0
4494.769,89.0
4504.794,90.0
4514.769,84.0
4522.705,90.0
4534.769,88.0
4542.719,87.0
4554.771,85.0
4564.801,89.0
4575.472,102.0
4582.828,145.0
4594.771,154.0
4602.939,152.0
4614.771,129.0
4624.797,158.0
4634.771,127.0
4642.967,144.0
4654.772,129.0
4662.985,143.0
4674.779,136.0
4684.815,94.0
4695.51,93.0
4703.149,88.0
4714.775,108.0
4723.109,106.0
4734.777,164.0
4744.802,81.0
4754.777,88.0
4763.136,86.0
4774.775,86.0
4783.152,88.0
4794.773,83.0
4804.798,130.0
4815.4,110.0
4823.295,86.0
4834.777,123.0
4843.322,83.0
4854.778,85.0
4864.807,84.0
4874.778,94.0
4883.354,84.0
4894.777,83.0
4903.37,82.0
4914.778,80.0
4924.803,94.0
4935.407,114.0
4943.486,84.0
4954.782,83.0
4963.56,85.0
4974.784,159.0
4984.812,167.0
4994.783,111.0
5003.591,107.0
5014.785,123.0
5023.606,157.0
5034.783,159.0
5044.816,95.0
5055.397,119.0
5063.718,139.0
5074.782,140.0
5083.783,141.0
5094.783,86.0
5104.801,91.0
5114.786,114.0
5123.811,91.0
5134.784,83.0
5143.826,81.0
5154.785,82.0
5164.811,104.0
5175.461,139.0
5183.994,84.0
5194.784,101.0
5204.099,81.0
5214.783,84.0
5224.806,86.0
5234.784,83.0
5244.098,89.0
5254.784,86.0
5264.111,82.0
5274.788,81.0
5284.815,102.0
5295.489,99.0
5304.241,115.0
5314.786,161.0
5324.324,162.0
5334.785,146.0
5344.809,133.0
5354.786,128.0
5364.357,113.0
5374.783,122.0
5384.367,105.0
5394.787,91.0
5404.813,96.0
5415.541,89.0
5424.556,89.0
5434.786,159.0
5444.621,130.0
5454.787,81.0
5464.813,82.0
5474.788,82.0
5484.647,83.0
5494.787,82.0
5504.668,102.0
5514.792,88.0
5524.82,88.0
5535.449,114.0
5544.838,82.0
5554.788,86.0
5564.792,89.0
5574.789,84.0
5584.813,86.0
5594.789,85.0
5604.81,83.0
5614.792,104.0
5624.794,85.0
5634.792,141.0
5644.817,101.0
5655.524,84.0
5665.055,98.0
5674.791,88.0
5684.795,91.0
5694.791,83.0
5704.818,84.0
5714.791,103.0
5724.795,102.0
5734.795,81.0
5744.796,81.0
5754.793,118.0
5764.821,89.0
5775.401,106.0
5785.094,101.0
5794.789,110.0
5804.795,96.0
5814.791,90.0
5824.816,83.0
5834.796,82.0
5844.827,129.0
5854.79,162.0
5864.797,133.0
5874.792,161.0
5884.816,95.0
5895.585,105.0
5904.998,82.0
5914.795,101.0
5924.796,97.0
5934.794,161.0
5944.823,110.0
5954.792,81.0
5964.801,84.0
5974.797,86.0
5984.8,117.0
5994.796,110.0
6004.822,88.0
6015.291,116.0
6025.035,84.0
6034.796,93.0
6044.799,83.0
6054.796,82.0
6064.822,101.0
6074.796,107.0
6084.796,93.0
6094.796,83.0
6104.803,83.0
6114.796,84.0
6124.821,105.0
6135.47,96.0
6145.057,151.0
6154.798,99.0
6164.799,95.0
6174.799,82.0
6184.817,82.0
6194.805,102.0
6204.8,92.0
6214.8,93.0
6224.8,121.0
6234.799,86.0
6244.826,112.0
6255.542,145.0
6265.112,84.0
6274.798,86.0
6284.801,86.0
6294.806,97.0
6304.833,158.0
6314.801,83.0
6324.8,120.0
6334.8,99.0
6344.798,84.0
6354.8,85.0
6364.826,91.0
6375.472,141.0
6385.034,95.0
6394.803,98.0
6404.801,95.0
6414.801,109.0
6424.827,159.0
6434.803,146.0
6444.805,159.0
6454.806,128.0
6464.803,140.0
6474.812,151.0
6484.838,93.0
6495.545,103.0
6505.191,82.0
6514.807,155.0
6524.804,141.0
6534.804,133.0
6544.828,157.0
6554.804,105.0
6564.806,101.0
6574.806,102.0
6584.807,107.0
6594.805,115.0
6604.829,101.0
6615.539,114.0
6625.025,84.0
6634.804,107.0
6644.808,105.0
6654.803,145.0
6664.828,121.0
6674.806,158.0
6684.804,160.0
6694.805,103.0
6704.806,99.0
6714.806,102.0
6724.834,98.0
6735.545,88.0
6745.079,122.0
6754.81,161.0
6764.805,135.0
6774.806,155.0
6784.832,146.0
6794.808,127.0
6804.806,118.0
6814.806,107.0
6824.806,105.0
6834.809,133.0
6844.837,86.0
6855.53,104.0
6865.025,141.0
6874.805,155.0
6884.806,120.0
6894.807,103.0
6904.836,152.0
6914.808,143.0
6924.808,126.0
6934.809,168.0
6944.806,101.0
6954.81,150.0
6964.841,114.0
6975.426,84.0
6985.063,154.0
6994.807,161.0
7004.808,148.0
7014.809,110.0
7024.836,102.0
7034.81,99.0
7044.808,97.0
7054.809,148.0
7064.808,153.0
7074.809,155.0
7084.834,89.0
7095.391,87.0
7105.049,125.0
7114.814,141.0
7124.81,128.0
7134.812,112.0
7144.837,128.0
7154.809,114.0
7164.812,140.0
7174.81,127.0
7184.812,113.0
7194.816,161.0
7204.841,92.0
7215.476,133.0
7225.104,148.0
7234.813,161.0
7244.812,159.0
7254.811,146.0
7264.838,155.0
7274.811,161.0
7284.813,127.0
7294.812,128.0
7304.814,128.0
7314.875,156.0
7324.894,110.0
7335.488,116.0
7345.103,111.0
7354.813,81.0
7364.813,83.0
7374.812,101.0
7384.835,84.0
7394.81,84.0
7404.812,84.0
7414.814,88.0
7424.85,85.0
7434.812,102.0
7444.837,93.0
7455.353,107.0
7464.814,86.0
7474.814,90.0
7484.813,92.0
7494.816,84.0
7504.84,83.0
7514.813,87.0
7524.813,86.0
7534.815,103.0
7544.821,83.0
7554.814,83.0
7564.842,114.0
7575.558,102.0
7585.106,119.0
7594.817,83.0
7604.815,89.0
7614.813,118.0
7624.839,101.0
7634.815,83.0
7644.815,83.0
7654.832,101.0
7664.82,129.0
7674.816,133.0
7684.846,107.0
7695.436,116.0
7704.946,176.0
7714.816,154.0
7724.816,162.0
7734.817,129.0
7744.843,130.0
7754.816,182.0
7764.842,179.0
7774.82,154.0
7784.822,164.0
7794.82,176.0
7804.845,96.0
7815.673,129.0
7825.068,124.0
7834.82,156.0
7844.822,154.0
7854.82,158.0
7864.861,161.0
7874.819,169.0
7884.819,153.0
7894.821,82.0
7904.821,153.0
7914.82,161.0
7924.851,109.0
7935.442,102.0
7945.069,150.0
7954.826,148.0
7964.824,110.0
7974.846,127.0
7984.872,129.0
7994.884,99.0
8004.823,99.0
8014.848,97.0
8024.827,85.0
8034.851,103.0
8044.878,88.0
8055.594,90.0
8065.042,80.0
8075.164,161.0
8084.825,96.0
8094.846,98.0
8104.872,128.0
8114.887,98.0
8124.828,161.0
8134.846,143.0
8144.83,146.0
8154.849,138.0
8164.881,91.0
8175.443,98.0
8185.035,162.0
8195.05,158.0
8204.826,130.0
8214.847,153.0
8224.875,139.0
8234.897,127.0
8244.828,161.0
8254.857,158.0
8264.828,143.0
8274.852,131.0
8284.888,106.0
8295.494,123.0
8305.071,166.0
8315.088,159.0
8324.831,160.0
8334.853,156.0
8344.879,148.0
8354.897,153.0
8364.829,130.0
8374.85,122.0
8384.833,161.0
8394.846,104.0
8404.872,97.0
8415.569,94.0
8425.071,81.0
8435.088,88.0
8444.831,89.0
8460.171,120.0
8465.187,83.0
8475.222,104.0
8484.828,83.0
8494.843,93.0
8504.83,84.0
8514.844,82.0
8524.864,132.0
8535.581,138.0
8544.921,83.0
8554.935,84.0
8564.832,83.0
8574.845,84.0
8584.865,108.0
8594.881,84.0
8604.83,84.0
8614.844,85.0
8624.83,84.0
8634.845,103.0
8644.865,129.0
8655.513,132.0
8665.096,83.0
8675.111,102.0
8684.833,93.0
8694.848,79.0
8704.877,104.0
8714.892,96.0
8724.871,82.0
8734.886,84.0
8744.831,101.0
8754.845,88.0
8764.866,92.0
8775.556,110.0
8785.057,117.0
8795.072,82.0
8804.831,82.0
8814.86,89.0
8824.879,103.0
8834.894,86.0
8844.835,98.0
8854.851,94.0
8864.835,118.0
8874.849,92.0
8884.867,99.0
8895.608,98.0
8905.089,83.0
8911.927,86.0
8924.834,82.0
8931.988,101.0
8942.023,84.0
8951.99,86.0
8964.833,88.0
8972.004,102.0
8984.832,90.0
8992.018,121.0
9005.449,91.0
9015.529,127.0
9025.061,85.0
9032.098,86.0
9044.836,83.0
9052.151,86.0
9062.182,83.0
9072.17,94.0
9084.835,119.0
9092.183,82.0
9104.833,83.0
9112.215,83.0
9122.243,131.0
9132.214,99.0
9145.07,83.0
9152.386,90.0
9164.838,89.0
9172.439,92.0
9182.463,94.0
9192.456,99.0
9204.836,84.0
9212.469,119.0
9224.873,103.0
9232.489,82.0
9242.517,114.0
9252.502,118.0
9265.092,86.0
9272.714,83.0
9284.837,89.0
9292.785,81.0
9302.811,84.0
9312.783,86.0
9324.838,84.0
9332.796,88.0
9344.839,89.0
9352.813,83.0
9362.845,92.0
9372.825,107.0
9385.105,98.0
9392.967,88.0
9404.84,83.0
9413.0,81.0
9423.029,122.0
9433.016,85.0
9444.84,159.0
9453.028,138.0
9464.84,83.0
9473.045,133.0
9483.084,97.0
9493.067,117.0
9504.839,152.0
9513.222,145.0
9524.84,124.0
9533.281,101.0
9543.31,100.0
9553.293,109.0
9564.841,83.0
9573.308,102.0
9584.842,91.0
9593.326,98.0
9603.355,85.0
9613.332,91.0
9625.071,158.0
9633.452,81.0
9644.861,88.0
9653.499,97.0
9663.53,90.0
9673.514,86.0
9684.843,84.0
9693.528,87.0
9704.842,86.0
9713.543,89.0
9723.581,107.0
9733.566,112.0
9745.068,86.0
9753.717,86.0
9764.841,83.0
9773.764,102.0
9783.799,84.0
9793.785,85.0
9804.844,83.0
9813.794,84.0
9824.85,88.0
9833.806,88.0
9843.839,109.0
9853.828,108.0
9865.071,84.0
9873.95,81.0
9884.843,91.0
9894.003,85.0
9904.038,87.0
9914.014,101.0
9924.846,120.0
9934.03,121.0
9944.845,101.0
9954.045,83.0
9964.082,104.0
9974.06,109.0
9985.084,162.0
9994.215,157.0
10004.845,144.0
10014.269,106.0
10024.304,129.0
10034.278,161.0
10044.847,96.0
10054.293,91.0
10064.844,81.0
10074.311,81.0
10084.362,89.0
10094.331,99.0
10105.085,84.0
10114.392,94.0
10124.849,83.0
10134.441,81.0
10144.473,82.0
10154.46,84.0
10164.847,89.0
10174.471,84.0
10184.858,83.0
10194.488,96.0
10204.526,83.0
10214.497,96.0
10225.163,90.0
10234.677,87.0
10244.85,86.0
10254.725,81.0
10264.754,92.0
10274.74,86.0
10284.85,86.0
10294.758,84.0
10304.852,84.0
10314.797,104.0
10324.828,84.0
10334.793,118.0
10345.076,91.0
10354.856,85.0
10364.852,84.0
10374.86,84.0
10384.892,90.0
10394.859,84.0
10404.853,91.0
10414.857,86.0
10424.853,83.0
10434.856,101.0
10444.9,136.0
10455.078,102.0
10465.328,88.0
10474.898,121.0
10484.851,87.0
10494.857,120.0
10504.881,88.0
10514.857,89.0
10524.853,96.0
10534.861,85.0
10544.853,85.0
10554.857,82.0
10564.888,96.0
10575.349,163.0
10585.098,87.0
10594.874,91.0
10604.855,87.0
10614.86,101.0
10624.888,101.0
10634.862,105.0
10644.855,84.0
10654.86,83.0
10664.874,159.0
10674.858,101.0
10684.912,89.0
10695.538,110.0
10705.086,150.0
10714.856,153.0
10724.855,151.0
10734.871,161.0
10744.895,166.0
10754.857,159.0
10764.855,158.0
10774.854,130.0
10784.854,138.0
10794.856,135.0
10804.909,86.0
10815.506,110.0
10825.105,140.0
10834.856,148.0
10844.856,145.0
10854.856,135.0
10864.876,123.0
10874.86,134.0
10884.858,164.0
10894.872,158.0
10904.867,135.0
10914.855,122.0
10924.881,87.0
10935.525,139.0
10945.093,83.0
10954.862,84.0
10964.858,142.0
10974.855,99.0
10984.879,84.0
10994.857,80.0
11004.857,83.0
11014.856,83.0
11024.856,83.0
11034.857,83.0
11044.885,104.0
11055.493,91.0
11065.157,130.0
11074.858,133.0
11084.857,84.0
11094.859,84.0
11104.884,86.0
11114.858,81.0
11124.861,92.0
11134.859,84.0
11144.859,86.0
11154.859,83.0
11164.887,115.0
11175.527,114.0
11185.079,93.0
11194.866,95.0
11204.857,100.0
11214.857,108.0
11224.878,120.0
11234.857,131.0
11244.859,140.0
11254.861,83.0
11264.86,141.0
11274.861,108.0
11284.889,138.0
11295.541,118.0
11305.114,135.0
11314.913,107.0
11324.859,88.0
11334.864,108.0
11344.888,83.0
11354.86,88.0
11364.86,83.0
11374.86,85.0
11384.861,119.0
11394.859,83.0
11404.884,111.0
11415.679,109.0
11425.13,122.0
11434.86,149.0
11444.862,102.0
11454.859,122.0
11464.884,109.0
11474.86,163.0
11484.862,102.0
11494.861,115.0
11504.866,82.0
11514.862,83.0
11524.893,84.0
11535.595,123.0
11545.091,92.0
11554.86,83.0
11564.922,84.0
11574.861,86.0
11584.885,90.0
11594.898,89.0
11604.868,89.0
11614.865,85.0
11624.863,83.0
11634.898,86.0
11644.925,99.0
11655.686,110.0
11665.251,84.0
11674.865,83.0
11684.865,90.0
11694.864,86.0
11704.89,94.0
11714.863,83.0
11724.864,83.0
11734.862,81.0
11744.864,86.0
11754.863,84.0
11764.895,107.0
11775.558,114.0
11785.092,81.0
11794.865,82.0
11804.903,87.0
11814.865,89.0
11824.89,119.0
11834.866,93.0
11844.865,84.0
11854.864,107.0
11864.867,89.0
11874.865,91.0
11884.891,92.0
11895.586,99.0
11905.112,88.0
11914.867,105.0
11924.864,87.0
11934.866,85.0
11944.89,107.0
11954.867,85.0
11964.869,84.0
11974.869,106.0
11984.869,84.0
11994.869,88.0
12004.896,113.0
12015.547,128.0
12025.109,88.0
12034.869,85.0
12044.869,88.0
12054.877,83.0
12064.903,99.0
12074.877,83.0
12084.87,82.0
12094.872,101.0
12104.87,82.0
12114.872,83.0
12124.915,132.0
12135.524,96.0
12145.102,100.0
12154.87,79.0
12164.871,86.0
12174.87,101.0
12184.895,127.0
12194.874,107.0
12204.869,84.0
12214.872,97.0
12224.871,84.0
12234.873,92.0
12244.901,123.0
12255.562,122.0
12265.122,89.0
12274.875,101.0
12284.873,151.0
12294.873,158.0
12304.897,123.0
12314.873,103.0
12324.874,122.0
12334.873,141.0
12344.873,125.0
12354.872,118.0
12364.902,102.0
12375.536,139.0
12385.103,137.0
12394.873,130.0
12404.874,129.0
12414.874,158.0
12424.894,86.0
12434.875,84.0
12444.874,83.0
12454.874,81.0
12464.875,89.0
12474.898,83.0
12484.924,102.0
12495.529,122.0
12505.098,85.0
12514.877,84.0
12524.88,84.0
12534.878,83.0
12544.896,118.0
12554.877,82.0
12564.877,85.0
12574.88,102.0
12584.879,92.0
12594.883,101.0
12604.909,109.0
12615.559,119.0
12625.111,87.0
12634.88,93.0
12644.878,83.0
12654.877,84.0
12664.927,91.0
12674.878,82.0
12684.878,82.0
12694.881,92.0
12704.88,83.0
12714.881,84.0
12724.907,107.0
12735.571,97.0
12745.097,84.0
12754.883,109.0
12764.881,81.0
12774.884,84.0
12784.911,93.0
12794.882,89.0
12804.881,84.0
12814.882,102.0
12824.884,84.0
12834.882,84.0
12844.908,104.0
12855.386,112.0
12865.139,86.0
12874.879,83.0
12884.882,83.0
12894.881,84.0
12904.924,80.0
12914.882,98.0
12924.883,81.0
12934.883,92.0
12944.885,91.0
12954.892,84.0
12964.924,100.0
12975.535,104.0
12985.129,82.0
12994.884,101.0
13004.885,84.0
13014.886,83.0
13024.914,97.0
13034.897,99.0
13044.884,107.0
13054.891,103.0
13064.883,126.0
13074.884,138.0
13084.91,110.0
13095.679,132.0
13105.143,111.0
13114.886,128.0
13124.886,131.0
13134.886,132.0
13144.909,82.0
13154.884,86.0
13164.886,86.0
13174.885,85.0
13184.885,81.0
13194.887,81.0
13204.922,110.0
13215.54,104.0
13225.164,86.0
13234.885,85.0
13244.886,84.0
13254.888,86.0
13264.913,87.0
13274.887,97.0
13284.889,98.0
13294.886,107.0
13304.888,83.0
13314.886,87.0
13324.911,94.0
13335.667,115.0
13344.978,89.0
13354.887,89.0
13364.889,86.0
13374.89,88.0
13384.918,92.0
13394.887,86.0
13404.888,83.0
13414.889,101.0
13424.886,83.0
13434.912,91.0
13444.936,105.0
13455.543,104.0
13465.113,84.0
13474.887,91.0
13484.89,81.0
13494.888,92.0
13504.915,81.0
13514.888,83.0
13524.89,83.0
13534.887,83.0
13544.892,81.0
13554.887,87.0
13564.913,97.0
13575.61,114.0
13585.121,84.0
13594.885,83.0
13604.886,83.0
13614.889,85.0
13624.916,84.0
13634.889,89.0
13644.886,85.0
13654.889,101.0
13664.889,85.0
13674.888,103.0
13684.915,107.0
13695.417,107.0
13705.148,128.0
13714.889,94.0
13724.888,83.0
13734.888,93.0
13744.917,88.0
13754.888,92.0
13764.889,86.0
13774.889,81.0
13784.889,100.0
13794.89,163.0
13804.927,88.0
13815.515,90.0
13825.187,138.0
13834.891,110.0
13844.89,83.0
13854.891,92.0
13864.919,98.0
13874.893,93.0
13884.889,86.0
13894.892,136.0
13904.891,128.0
13914.891,146.0
13924.917,93.0
13935.568,96.0
13945.115,144.0
13954.893,163.0
13964.932,154.0
13974.896,158.0
13984.923,140.0
13994.915,133.0
14004.937,152.0
14014.891,161.0
14024.912,165.0
14034.91,144.0
14044.935,107.0
14055.542,140.0
14065.126,117.0
14074.895,145.0
14084.916,151.0
14094.895,155.0
14104.921,161.0
14114.894,132.0
14124.915,151.0
14134.895,106.0
14144.914,102.0
14154.897,97.0
14164.922,127.0
14175.546,107.0
14185.561,83.0
14194.895,100.0
14204.909,82.0
14214.897,82.0
14224.922,88.0
14234.896,84.0
14244.91,84.0
14254.896,102.0
14264.91,85.0
14274.895,83.0
14284.928,113.0
14295.492,120.0
14305.517,125.0
14314.898,103.0
14324.938,85.0
14334.901,95.0
14344.928,104.0
14354.897,121.0
14364.912,102.0
14374.896,91.0
14384.917,84.0
14394.9,83.0
14404.926,105.0
14415.393,115.0
14425.409,128.0
14434.899,160.0
14444.914,107.0
14454.898,96.0
14464.924,92.0
14474.902,101.0
14484.916,85.0
14494.902,162.0
14504.916,83.0
14514.903,158.0
14524.928,83.0
14535.596,88.0
14545.621,86.0
14554.901,122.0
14564.915,83.0
14574.901,83.0
14584.923,101.0
14594.899,87.0
14604.912,81.0
14614.902,102.0
14624.915,86.0
14634.904,89.0
14644.964,102.0
14655.552,109.0
14665.565,86.0
14674.902,85.0
14681.909,91.0
14694.905,88.0
14704.922,102.0
14714.902,91.0
14724.916,102.0
14734.903,107.0
14744.915,83.0
14754.903,84.0
14764.931,132.0
14775.565,100.0
14782.144,87.0
14794.9,83.0
14802.198,84.0
14814.903,85.0
14824.926,81.0
14834.902,86.0
14842.229,85.0
14854.902,82.0
14862.242,83.0
14874.906,102.0
14884.931,93.0
14895.707,131.0
14902.397,83.0
14914.902,84.0
14922.451,81.0
14934.945,89.0
14944.972,103.0
14954.903,98.0
14962.483,86.0
14974.903,86.0
14982.492,120.0
14994.909,88.0
15004.937,109.0
15015.572,122.0
15022.561,153.0
15034.907,129.0
15042.614,160.0
15054.907,162.0
15064.931,164.0
15074.905,152.0
15082.643,140.0
15094.908,158.0
15102.657,159.0
15114.915,103.0
15124.941,107.0
15135.633,117.0
15142.788,81.0
15154.906,127.0
15162.844,103.0
15174.906,110.0
15184.929,88.0
15194.906,84.0
15202.873,92.0
15214.907,111.0
15222.887,90.0
15234.913,84.0
15244.941,140.0
15255.654,111.0
15262.988,141.0
15274.91,143.0
15283.047,138.0
15294.909,81.0
15304.952,140.0
15314.91,141.0
15323.076,83.0
15334.911,82.0
15343.127,84.0
15354.909,88.0
15364.933,127.0
15375.598,107.0
15383.226,81.0
15394.911,83.0
15403.352,84.0
15414.914,82.0
15424.939,92.0
15434.911,84.0
15443.381,88.0
15454.916,101.0
15463.396,85.0
15474.912,85.0
15484.937,99.0
15495.711,95.0
15503.571,90.0
15514.912,86.0
15523.622,83.0
15534.912,91.0
15544.936,105.0
15554.911,89.0
15563.653,106.0
15574.913,91.0
15583.666,89.0
15594.918,84.0
15604.942,114.0
15615.576,97.0
15623.79,89.0
15634.913,102.0
15643.852,92.0
15654.914,88.0
15664.941,89.0
15674.912,104.0
15683.885,92.0
15694.916,84.0
15703.898,85.0
15714.916,93.0
15724.942,132.0
15735.599,102.0
15744.02,87.0
15754.914,89.0
15764.079,85.0
15774.915,89.0
15784.942,83.0
15794.917,81.0
15804.104,84.0
15814.916,104.0
15824.119,81.0
15834.915,92.0
15844.939,135.0
15855.622,115.0
15864.308,86.0
15874.917,88.0
15884.377,84.0
15894.917,87.0
15904.944,81.0
15914.914,86.0
15924.408,89.0
15934.915,91.0
15944.423,91.0
15954.914,86.0
15964.94,132.0
15975.467,112.0
15984.567,81.0
15994.916,88.0
16004.623,82.0
16014.916,105.0
16024.941,101.0
16034.917,83.0
16044.643,89.0
16054.917,84.0
16064.659,87.0
16074.917,88.0
16084.945,91.0
16095.583,120.0
16104.946,91.0
16114.918,81.0
16124.919,84.0
16134.918,83.0
16144.941,102.0
16154.919,83.0
16164.924,92.0
16174.918,89.0
16184.925,96.0
16194.917,83.0
16204.962,137.0
16215.491,104.0
16225.149,86.0
16234.921,82.0
16244.922,82.0
16254.919,81.0
16264.946,91.0
16274.92,101.0
16284.926,83.0
16294.921,83.0
16304.924,80.0
16314.918,121.0
16324.943,101.0
16335.656,122.0
16345.161,91.0
16354.921,81.0
16364.928,83.0
16374.92,82.0
16384.945,86.0
16394.923,83.0
16404.929,94.0
16414.922,104.0
16424.923,102.0
16434.92,81.0
16444.952,88.0
16455.586,88.0
16465.184,84.0
16474.923,96.0
16484.926,88.0
16494.922,114.0
16504.947,128.0
16514.932,105.0
16524.926,114.0
16534.926,105.0
16544.928,144.0
16554.924,110.0
16564.951,107.0
16575.639,89.0
16585.197,85.0
16594.958,94.0
16604.926,82.0
16614.924,150.0
16624.951,86.0
16634.928,84.0
16644.924,88.0
16654.956,101.0
16664.924,91.0
16674.925,101.0
16684.955,105.0
16695.629,92.0
16705.146,91.0
16714.924,84.0
16724.924,82.0
16734.924,82.0
16744.948,84.0
16754.926,83.0
16764.925,87.0
16774.923,89.0
16784.929,93.0
16794.924,84.0
16804.96,107.0
16815.75,113.0
16825.038,88.0
16834.924,88.0
16844.925,81.0
16854.924,87.0
16864.955,92.0
16874.927,102.0
16884.925,88.0
16894.926,83.0
16904.925,88.0
16914.925,89.0
16925.015,95.0
16935.542,115.0
16945.163,84.0
16954.929,83.0
16964.929,83.0
16974.928,86.0
16984.955,87.0
16994.929,84.0
17004.926,84.0
17014.928,83.0
17024.927,102.0
17034.928,88.0
17044.954,150.0
17055.531,113.0
17065.164,83.0
17074.929,150.0
17084.927,89.0
17094.928,86.0
17104.953,146.0
17114.929,98.0
17124.927,154.0
17134.931,158.0
17144.929,163.0
17154.93,138.0
17164.96,92.0
17175.737,102.0
17185.269,143.0
17194.933,92.0
17204.929,96.0
17214.928,103.0
17224.954,133.0
17234.932,112.0
17244.93,86.0
17254.931,117.0
17264.931,103.0
17274.933,119.0
17284.958,140.0
17295.6,123.0
17305.151,143.0
17314.932,163.0
17324.934,165.0
17334.949,131.0
17344.976,158.0
17354.934,153.0
17364.934,143.0
17374.934,145.0
17384.947,144.0
17394.934,146.0
17404.964,90.0
17415.571,91.0
17425.154,130.0
17434.936,83.0
17444.937,84.0
17454.935,90.0
17464.963,81.0
17474.934,82.0
17484.936,81.0
17494.937,99.0
17504.935,97.0
17514.934,81.0
17524.958,108.0
17535.588,107.0
17545.163,112.0
17554.935,130.0
17564.936,136.0
17574.935,99.0
17584.96,111.0
17594.937,126.0
17604.935,123.0
17614.936,105.0
17624.937,107.0
17634.936,101.0
17644.977,93.0
17655.554,126.0
17665.249,84.0
17674.939,97.0
17684.936,97.0
17694.938,83.0
17704.962,87.0
17714.942,102.0
17724.939,83.0
17734.941,82.0
17744.938,83.0
17754.938,83.0
17764.964,135.0
17775.662,123.0
17785.014,94.0
17794.941,85.0
17804.942,84.0
17814.945,84.0
17824.973,84.0
17834.945,83.0
17844.943,82.0
17854.943,96.0
17864.944,81.0
17874.943,83.0
17884.968,118.0
17895.64,130.0
17905.23,83.0
17914.944,96.0
17924.945,86.0
17934.944,91.0
17944.969,102.0
17954.942,88.0
17964.943,85.0
17974.942,104.0
17984.942,88.0
17994.944,83.0
18004.97,98.0
18015.641,89.0
18025.225,84.0
18034.943,88.0
18044.942,84.0
18054.942,89.0
18064.967,90.0
18074.944,91.0
18084.945,93.0
18094.943,83.0
18104.943,84.0
18114.944,82.0
18124.967,99.0
18135.687,149.0
18145.272,88.0
18154.947,114.0
18164.945,88.0
18174.944,98.0
18184.966,88.0
18194.945,102.0
18204.948,86.0
18214.946,87.0
18224.955,83.0
18234.945,85.0
18245.015,145.0
18255.903,120.0
18265.077,91.0
18274.949,101.0
18284.95,87.0
18294.951,102.0
18304.977,97.0
18314.951,83.0
18324.95,89.0
18334.952,84.0
18344.951,90.0
18354.951,84.0
18365.006,102.0
18375.544,99.0
18385.196,84.0
18394.954,84.0
18404.957,92.0
18414.955,96.0
18424.981,83.0
18434.954,86.0
18444.958,82.0
18454.954,89.0
18464.954,91.0
18474.953,86.0
18484.981,95.0
18495.614,92.0
18505.226,84.0
18514.954,91.0
18524.958,84.0
18534.955,83.0
18544.98,96.0
18554.954,84.0
18564.955,89.0
18574.955,83.0
18584.975,94.0
18594.954,82.0
18604.978,130.0
18615.588,94.0
18625.221,83.0
18634.958,80.0
18644.956,82.0
18654.975,83.0
18664.999,95.0
18674.959,84.0
18684.96,82.0
18694.982,120.0
18704.956,86.0
18714.976,86.0
18725.001,104.0
18735.825,103.0
18745.31,87.0
18754.959,83.0
18764.958,83.0
18774.991,84.0
18785.015,86.0
18795.037,83.0
18804.959,83.0
18814.98,89.0
18824.959,87.0
18834.976,88.0
18845.001,120.0
18855.639,89.0
18864.958,86.0
18874.98,83.0
18884.963,86.0
18894.985,86.0
18905.024,84.0
18915.044,84.0
18924.96,87.0
18934.982,84.0
18944.96,84.0
18954.979,101.0
18965.008,132.0
18975.624,83.0
18985.184,97.0
18995.199,93.0
19004.961,100.0
19014.98,101.0
19025.002,84.0
19035.016,81.0
19044.963,84.0
19054.986,83.0
19064.963,83.0
19074.99,92.0
19085.042,99.0
19095.635,113.0
19105.054,107.0
19115.07,104.0
19124.966,85.0
19134.979,95.0
19145.0,91.0
19155.014,102.0
19164.966,84.0
19174.98,85.0
19184.963,92.0
19194.976,97.0
19205.0,108.0
19215.683,107.0
19225.192,122.0
19235.208,125.0
19244.964,128.0
19254.979,116.0
19264.997,102.0
19275.012,99.0
19284.964,86.0
19294.992,98.0
19304.969,81.0
19314.983,83.0
19325.003,90.0
19335.512,114.0
19345.171,84.0
19355.186,83.0
19364.965,81.0
19374.98,83.0
19384.998,82.0
19395.011,81.0
19404.965,83.0
19414.98,83.0
19424.965,81.0
19434.986,93.0
19445.0,88.0
19455.571,109.0
19465.179,81.0
19475.221,83.0
19484.968,81.0
19494.984,89.0
19505.002,82.0
19515.017,79.0
19524.965,93.0
19534.983,83.0
19544.969,97.0
19554.983,88.0
19565.013,109.0
19575.644,113.0
19585.181,86.0
19592.12,86.0
19604.966,90.0
19614.978,103.0
19622.204,86.0
19632.188,83.0
19644.971,85.0
19652.203,88.0
19664.97,91.0
19672.216,89.0
19685.657,103.0
19695.673,91.0
19705.28,89.0
19712.327,83.0
19724.97,83.0
19732.371,102.0
19742.4,87.0
19752.389,86.0
19764.97,87.0
19772.4,85.0
19784.969,91.0
19792.435,89.0
19802.466,113.0
19812.435,126.0
19824.972,87.0
19832.584,83.0
19844.972,89.0
19852.639,89.0
19862.676,88.0
19872.654,88.0
19884.976,86.0
19892.67,90.0
19904.976,91.0
19912.684,104.0
19922.71,108.0
19932.694,94.0
19945.246,88.0
19952.868,121.0
19964.977,94.0
19972.909,85.0
19985.198,91.0
19992.961,89.0
20004.976,88.0
20012.94,84.0
20024.976,83.0
20032.955,85.0
20042.998,109.0
20052.993,114.0
20065.19,86.0
20073.091,86.0
20084.978,84.0
20093.149,83.0
20103.177,89.0
20113.165,83.0
20124.977,161.0
20133.177,130.0
20144.979,129.0
20153.19,157.0
20163.217,110.0
20173.205,142.0
20185.207,168.0
20193.347,161.0
20204.978,165.0
20213.393,88.0
20223.424,149.0
20233.41,159.0
20244.979,96.0
20253.422,162.0
20264.978,149.0
20273.438,151.0
20283.526,86.0
20293.455,97.0
20305.198,177.0
20313.605,179.0
20324.98,175.0
20333.658,168.0
20343.685,141.0
20353.67,83.0
20364.982,84.0
20373.699,83.0
20384.98,84.0
20393.702,86.0
20403.739,109.0
20413.713,139.0
20425.24,138.0
20433.843,83.0
20444.981,82.0
20453.889,101.0
20463.952,89.0
20473.902,89.0
20484.982,88.0
20493.918,86.0
20504.979,104.0
20513.932,83.0
20523.964,98.0
20533.948,106.0
20545.214,83.0
20554.091,93.0
20564.98,86.0
20574.149,89.0
20584.183,87.0
20594.164,94.0
20604.986,90.0
20614.179,92.0
20624.984,87.0
20634.193,85.0
20644.227,141.0
20654.212,110.0
20665.209,91.0
20674.349,90.0
20685.019,90.0
20694.406,85.0
20704.44,88.0
20714.421,91.0
20724.987,93.0
20734.435,83.0
20744.986,90.0
20754.452,89.0
20764.497,106.0
20774.465,146.0
20785.212,87.0
20794.614,83.0
20804.985,81.0
20814.67,86.0
20824.703,91.0
20834.683,83.0
20844.985,84.0
20854.698,88.0
20864.987,84.0
20874.713,84.0
20884.747,86.0
20894.731,92.0
20904.987,141.0
20914.776,112.0
20924.987,145.0
20934.885,141.0
20944.92,147.0
20954.898,140.0
20964.988,123.0
20974.913,90.0
20984.987,130.0
20994.93,141.0
21004.96,103.0
21014.945,132.0
21025.222,82.0
21034.993,83.0
21044.988,83.0
21054.994,82.0
21065.022,97.0
21074.992,81.0
21084.989,102.0
21094.992,84.0
21104.993,85.0
21114.992,92.0
21125.023,89.0
21135.143,97.0
21145.258,84.0
21154.991,83.0
21164.987,83.0
21174.993,82.0
21185.014,83.0
21194.992,84.0
21204.989,84.0
21215.021,81.0
21224.991,85.0
21234.993,103.0
21245.023,105.0
21255.415,88.0
21265.247,82.0
21274.993,84.0
21284.991,83.0
21294.998,98.0
21305.02,83.0
21314.995,81.0
21325.004,102.0
21335.004,156.0
21344.99,83.0
21354.995,102.0
21365.021,137.0
21375.622,102.0
21385.218,86.0
21395.02,84.0
21404.992,91.0
21414.992,83.0
21425.018,82.0
21434.994,81.0
21444.991,84.0
21454.994,84.0
21464.992,83.0
21474.991,95.0
21485.018,133.0
21495.599,113.0
21505.246,84.0
21514.991,87.0
21525.008,83.0
21534.993,102.0
21545.02,92.0
21554.995,89.0
21564.998,84.0
21574.993,99.0
21584.992,91.0
21594.994,91.0
21605.021,110.0
21615.688,95.0
21625.217,88.0
21634.995,84.0
21644.995,88.0
21654.993,101.0
21665.017,92.0
21674.994,94.0
21684.992,89.0
21694.995,83.0
21704.994,96.0
21714.995,86.0
21725.023,106.0
21735.598,113.0
21745.212,86.0
21754.996,102.0
21765.031,133.0
21774.995,188.0
21785.015,134.0
21794.997,162.0
21805.0,97.0
21814.998,94.0
21824.997,110.0
21834.997,159.0
21845.024,109.0
21855.729,136.0
21865.202,157.0
21875.001,96.0
21885.002,88.0
21894.999,83.0
21905.025,122.0
21915.001,91.0
21925.0,83.0
21935.0,84.0
21945.01,85.0
21955.0,121.0
21965.033,111.0
21975.614,88.0
21985.245,95.0
21995.003,88.0
22005.002,101.0
22015.033,101.0
22025.062,83.0
22035.039,98.0
22045.01,83.0
22055.005,83.0
22065.002,83.0
22075.004,84.0
22085.033,86.0
22095.817,92.0
22105.252,89.0
22115.002,83.0
22125.007,85.0
22135.002,81.0
22145.027,83.0
22155.0,82.0
22165.003,84.0
22175.004,81.0
22185.005,83.0
22195.002,82.0
22205.029,142.0
22215.664,115.0
22225.255,92.0
22235.004,82.0
22245.009,87.0
22255.004,95.0
22265.031,89.0
22275.007,83.0
22285.01,89.0
22295.008,88.0
22305.009,87.0
22315.005,84.0
22325.055,129.0
22335.63,88.0
22345.286,114.0
22355.004,123.0
22365.007,161.0
22375.009,160.0
22385.038,153.0
22395.009,156.0
22405.011,114.0
22415.006,94.0
22425.006,94.0
22435.006,94.0
22445.036,124.0
22455.764,112.0
22465.192,86.0
22475.008,91.0
22485.013,83.0
22495.011,101.0
22505.039,98.0
22515.005,82.0
22525.037,83.0
22535.007,98.0
22545.005,83.0
22555.009,96.0
22565.037,89.0
22575.736,97.0
22585.242,83.0
22595.009,84.0
22605.007,85.0
22615.005,83.0
22625.03,120.0
22635.004,83.0
22645.008,93.0
22655.006,88.0
22665.008,89.0
22675.004,83.0
22685.043,120.0
22695.7,84.0
22705.265,83.0
22715.009,96.0
22725.013,82.0
22735.006,83.0
22745.034,87.0
22755.01,83.0
22765.051,82.0
22775.041,96.0
22785.007,93.0
22795.04,97.0
22805.071,87.0
22815.676,128.0
22825.25,91.0
22835.009,85.0
22845.009,101.0
22855.009,83.0
22865.034,99.0
22875.007,81.0
22885.013,83.0
22895.007,80.0
22905.01,82.0
22915.008,83.0
22925.033,85.0
22935.699,111.0
22945.239,86.0
22955.009,105.0
22965.008,81.0
22975.007,83.0
22985.03,89.0
22995.01,81.0
23005.01,82.0
23015.009,85.0
23025.008,81.0
23035.013,100.0
23045.038,103.0
23055.733,123.0
23065.375,80.0
23075.007,83.0
23085.01,83.0
23095.01,82.0
23105.103,102.0
23115.012,89.0
23125.009,84.0
23135.009,84.0
23145.01,80.0
23155.011,85.0
23165.041,128.0
23175.695,101.0
23185.237,83.0
23195.016,83.0
23205.014,82.0
23215.015,97.0
23225.042,91.0
23235.015,96.0
23245.016,96.0
23255.015,82.0
23265.018,97.0
23275.015,83.0
23285.046,111.0
23295.726,107.0
23305.285,96.0
23315.016,84.0
23325.018,83.0
23335.013,83.0
23345.053,84.0
23355.015,83.0
23365.016,82.0
23375.015,82.0
23385.102,83.0
23395.016,83.0
23405.051,118.0
23415.7,135.0
23425.232,97.0
23435.017,83.0
23445.018,82.0
23455.017,89.0
23465.042,89.0
23475.016,101.0
23485.016,81.0
23495.018,79.0
23505.017,84.0
23515.019,84.0
23525.044,92.0
23535.672,125.0
23545.253,86.0
23555.019,107.0
23565.018,98.0
23575.019,83.0
23585.045,102.0
23595.02,83.0
23605.019,119.0
23615.018,94.0
23625.033,85.0
23635.018,84.0
23645.04,88.0
23655.581,85.0
23665.382,89.0
23675.02,84.0
23685.019,86.0
23695.022,88.0
23705.048,87.0
23715.021,88.0
23725.02,91.0
23735.018,83.0
23745.022,94.0
23755.022,83.0
23765.052,93.0
23775.628,104.0
23785.276,160.0
23795.021,84.0
23805.027,88.0
23815.022,163.0
23825.052,165.0
23835.027,120.0
23845.024,91.0
23855.021,97.0
23865.023,134.0
23875.024,96.0
23885.054,99.0
23895.654,113.0
23905.024,140.0
23915.024,138.0
23925.025,140.0
23935.022,140.0
23945.07,136.0
23955.022,113.0
23965.023,139.0
23975.022,84.0
23985.023,88.0
23995.029,81.0
24005.062,130.0
24015.76,123.0
24025.249,98.0
24035.025,86.0
24045.027,83.0
24055.029,95.0
24065.057,88.0
24075.024,89.0
24085.03,86.0
24095.024,88.0
24105.027,91.0
24115.023,83.0
24125.049,98.0
24135.777,108.0
24145.273,108.0
24155.023,150.0
24165.046,154.0
24175.024,127.0
24185.051,139.0
24195.025,164.0
24205.047,152.0
24215.025,135.0
24225.123,123.0
24235.024,116.0
24245.051,104.0
24255.821,101.0
24265.261,112.0
24275.025,164.0
24285.062,161.0
24295.023,133.0
24305.042,140.0
24315.023,151.0
24325.039,144.0
24335.026,166.0
24345.049,164.0
24355.036,127.0
24365.064,114.0
24375.756,145.0
24385.802,123.0
24395.026,103.0
24405.074,88.0
24415.031,87.0
24425.057,86.0
24435.064,87.0
24445.087,86.0
24455.026,89.0
24465.064,84.0
24475.027,86.0
24485.052,89.0
24495.716,123.0
24505.733,93.0
24515.026,86.0
24525.039,97.0
24535.025,87.0
24545.043,85.0
24555.027,83.0
24565.041,85.0
24575.026,91.0
24585.039,92.0
24595.026,90.0
24605.05,100.0
24615.857,143.0
24625.881,96.0
24635.03,86.0
24645.045,81.0
24655.027,84.0
24665.056,89.0
24675.029,94.0
24685.048,89.0
24695.029,86.0
24705.063,92.0
24715.028,123.0
24725.057,113.0
24735.876,116.0
24745.891,89.0
24755.028,91.0
24765.043,89.0
24775.033,87.0
24785.051,88.0
24795.029,91.0
24805.044,92.0
24815.03,91.0
24825.044,84.0
24835.028,87.0
24845.054,131.0
24855.702,113.0
24865.724,88.0
24875.03,89.0
24885.043,84.0
24895.032,86.0
24905.054,105.0
24915.033,81.0
24925.046,82.0
24935.034,86.0
24945.047,85.0
24955.032,88.0
24965.061,91.0
24975.647,120.0
24985.661,84.0
24995.034,92.0
25005.055,102.0
25015.036,97.0
25025.082,95.0
25035.034,133.0
25042.149,115.0
25055.034,107.0
25065.047,132.0
25075.033,134.0
25085.058,92.0
25095.565,120.0
25102.356,98.0
25115.035,84.0
25122.425,82.0
25135.034,89.0
25145.058,83.0
25155.036,87.0
25162.454,86.0
25175.04,86.0
25182.467,83.0
25195.037,84.0
25205.065,96.0
25215.673,135.0
25222.605,83.0
25235.04,85.0
25245.054,90.0
25255.037,82.0
25265.079,84.0
25275.037,81.0
25282.697,91.0
25295.036,89.0
25302.712,123.0
25315.039,83.0
25325.061,118.0
25335.669,115.0
25342.893,97.0
25355.039,81.0
25362.965,105.0
25375.042,145.0
25385.068,93.0
25395.04,95.0
25402.978,87.0
25415.041,106.0
25422.993,102.0
25435.042,95.0
25445.077,94.0
25455.737,109.0
25463.095,161.0
25475.043,146.0
25483.151,156.0
25495.041,91.0
25505.067,90.0
25515.043,85.0
25523.181,87.0
25535.042,88.0
25543.199,81.0
25555.042,83.0
25565.069,102.0
25575.684,103.0
25583.296,86.0
25595.042,90.0
25603.359,83.0
25615.041,83.0
25625.064,81.0
25635.041,82.0
25643.387,82.0
25655.041,86.0
25663.406,82.0
25675.04,82.0
25685.066,126.0
25695.558,83.0
25703.499,82.0
25715.045,99.0
25723.591,85.0
25735.041,83.0
25745.067,86.0
25755.041,89.0
25763.594,88.0
25775.04,146.0
25783.607,134.0
25795.043,143.0
25805.07,94.0
25815.755,140.0
25823.703,143.0
25835.041,149.0
25843.765,151.0
25855.042,88.0
25865.068,89.0
25875.044,89.0
25883.795,83.0
25895.044,84.0
25903.81,90.0
25915.043,101.0
25925.069,108.0
25935.647,138.0
25943.929,109.0
25955.046,115.0
25963.987,87.0
25975.045,88.0
25985.07,84.0
25995.045,88.0
26004.016,100.0
26015.047,82.0
26024.035,83.0
26035.047,102.0
26045.09,89.0
26055.768,115.0
26064.187,85.0
26075.055,85.0
26084.244,89.0
26095.047,168.0
26105.073,161.0
26115.048,91.0
26124.273,93.0
26135.046,119.0
26144.289,99.0
26155.05,159.0
26165.077,90.0
26175.718,111.0
26184.389,86.0
26195.049,87.0
26204.454,86.0
26215.052,83.0
26225.077,88.0
26235.059,82.0
26244.485,86.0
26255.052,84.0
26264.498,94.0
26275.051,86.0
26285.078,104.0
26295.786,141.0
26304.622,84.0
26315.058,83.0
26324.737,83.0
26335.051,86.0
26345.076,83.0
26355.052,83.0
26364.753,82.0
26375.057,84.0
26384.767,92.0
26395.051,84.0
26405.082,90.0
26415.902,105.0
26424.909,88.0
26435.062,141.0
26444.97,142.0
26455.053,151.0
26465.077,138.0
26475.05,139.0
26485.002,143.0
26495.054,143.0
26505.014,131.0
26515.051,154.0
26525.079,115.0
26535.725,96.0
26545.203,102.0
26555.053,83.0
26565.057,84.0
26575.052,89.0
26585.091,84.0
26595.054,87.0
26605.059,89.0
26615.054,91.0
26625.06,89.0
26635.056,86.0
26645.079,101.0
26655.657,118.0
26665.267,81.0
26675.053,83.0
26685.059,84.0
26695.055,81.0
26705.073,84.0
26715.055,86.0
26725.06,89.0
26735.057,82.0
26745.064,132.0
26755.061,145.0
26765.11,102.0
26775.774,96.0
26785.32,83.0
26795.059,101.0
26805.062,100.0
26815.057,138.0
26825.08,132.0
26835.059,163.0
26845.069,112.0
26855.06,161.0
26865.063,153.0
26875.06,92.0
26885.087,88.0
26895.893,86.0
26905.3,84.0
26915.06,86.0
26925.06,101.0
26935.058,81.0
26945.084,88.0
26955.059,82.0
26965.059,96.0
26975.06,97.0
26985.06,81.0
26995.059,83.0
27005.084,102.0
27015.574,105.0
27025.059,82.0
27035.059,87.0
27045.06,83.0
27055.061,84.0
27065.086,89.0
27075.061,90.0
27085.06,101.0
27095.059,138.0
27105.06,139.0
27115.059,141.0
27125.083,84.0
27135.66,89.0
27145.294,92.0
27155.062,101.0
27165.064,92.0
27175.06,96.0
27185.085,140.0
27195.061,163.0
27205.064,141.0
27215.06,156.0
27225.063,84.0
27235.061,83.0
27245.085,102.0
27255.673,117.0
27265.284,88.0
27275.064,94.0
27285.063,86.0
27295.063,97.0
27305.087,84.0
27315.063,90.0
27325.064,94.0
27335.066,87.0
27345.065,84.0
27355.065,84.0
27365.09,130.0
27375.746,93.0
27385.303,83.0
27395.065,85.0
27405.065,86.0
27415.064,81.0
27425.098,94.0
27435.071,83.0
27445.065,87.0
27455.065,119.0
27465.066,81.0
27475.064,132.0
27485.091,97.0
27495.795,105.0
27505.156,91.0
27515.065,106.0
27525.065,159.0
27535.067,156.0
27545.093,146.0
27555.067,154.0
27565.067,159.0
27575.067,133.0
27585.067,92.0
27595.067,90.0
27605.093,95.0
27615.716,124.0
27625.296,83.0
27635.064,89.0
27645.068,83.0
27655.066,86.0
27665.092,87.0
27675.067,82.0
27685.068,91.0
27695.067,89.0
27705.065,96.0
27715.066,83.0
27725.09,105.0
27735.793,107.0
27745.282,83.0
27755.074,83.0
27765.068,83.0
27775.069,96.0
27785.095,137.0
27795.068,133.0
27805.075,87.0
27815.07,102.0
27825.07,84.0
27835.069,102.0
27845.092,122.0
27855.802,102.0
27865.289,128.0
27875.073,129.0
27885.069,178.0
27895.071,129.0
27905.097,138.0
27915.073,147.0
27925.072,177.0
27935.073,87.0
27945.084,84.0
27955.07,89.0
27965.097,105.0
27975.841,113.0
27985.192,81.0
27995.078,81.0
28005.074,83.0
28015.074,84.0
28025.099,83.0
28035.073,83.0
28045.073,86.0
28055.072,86.0
28065.073,84.0
28075.073,91.0
28085.099,108.0
28095.741,98.0
28105.306,87.0
28115.074,83.0
28125.075,81.0
28135.074,84.0
28145.119,84.0
28155.075,88.0
28165.076,84.0
28175.075,89.0
28185.075,96.0
28195.075,83.0
28205.103,104.0
28215.685,98.0
28225.299,83.0
28235.075,83.0
28245.074,101.0
28255.076,87.0
28265.101,111.0
28275.074,112.0
28285.075,96.0
28295.076,156.0
28305.075,141.0
28315.077,127.0
28325.105,89.0
28335.755,100.0
28345.294,104.0
28355.079,97.0
28365.076,83.0
28375.079,84.0
28385.105,84.0
28395.078,82.0
28405.078,86.0
28415.081,81.0
28425.081,83.0
28435.079,84.0
28445.104,86.0
28455.79,125.0
28465.405,86.0
28475.079,81.0
28485.08,86.0
28495.08,83.0
28505.105,86.0
28515.081,83.0
28525.078,86.0
28535.081,82.0
28545.081,82.0
28555.08,81.0
28565.108,81.0
28575.732,89.0
28585.33,89.0
28595.08,86.0
28605.081,87.0
28615.081,84.0
28625.12,97.0
28635.082,85.0
28645.084,104.0
28655.08,166.0
28665.081,117.0
28675.082,104.0
28685.126,115.0
28695.756,87.0
28705.325,141.0
28715.082,184.0
28725.085,135.0
28735.089,177.0
28745.122,157.0
28755.082,133.0
28765.083,177.0
28775.083,182.0
28785.086,159.0
28795.084,86.0
28805.11,91.0
28815.862,97.0
28825.341,97.0
28835.084,85.0
28845.084,82.0
28855.109,81.0
28865.134,101.0
28875.154,92.0
28885.084,83.0
28895.103,83.0
28905.083,84.0
28915.105,91.0
28925.13,92.0
28935.695,112.0
28945.251,86.0
28955.264,88.0
28965.085,82.0
28975.104,141.0
28985.128,83.0
28995.148,140.0
29005.085,145.0
29015.118,136.0
29025.087,127.0
29035.107,116.0
29045.14,96.0
29055.762,106.0
29065.36,102.0
29075.383,82.0
29085.087,83.0
29095.106,101.0
29105.129,102.0
29115.15,83.0
29125.089,83.0
29135.108,96.0
29145.087,81.0
29155.111,82.0
29165.134,135.0
29175.79,118.0
29185.367,83.0
29195.381,81.0
29205.089,160.0
29215.107,81.0
29225.13,84.0
29235.15,83.0
29245.092,83.0
29255.112,82.0
29265.089,151.0
29275.108,99.0
29285.144,96.0
29295.735,104.0
29305.289,140.0
29315.312,158.0
29325.089,165.0
29335.109,99.0
29345.128,91.0
29355.141,101.0
29365.093,109.0
29375.106,108.0
29385.092,159.0
29395.119,151.0
29405.175,107.0
29415.805,110.0
29425.465,144.0
29435.479,144.0
29445.092,146.0
29455.105,81.0
29465.122,128.0
29475.136,83.0
29485.094,84.0
29495.117,81.0
29505.094,82.0
29515.13,86.0
29525.16,115.0
29535.873,114.0
29545.314,101.0
29555.329,84.0
29565.098,82.0
29575.112,82.0
29585.13,102.0
29595.144,95.0
29605.095,83.0
29615.108,82.0
29635.108,83.0
29645.165,131.0
29655.737,86.0
29665.384,81.0
29675.398,83.0
29685.096,87.0
29695.131,86.0
29705.149,83.0
29715.165,96.0
29725.094,86.0
29735.107,138.0
29745.096,143.0
29755.112,156.0
29765.147,98.0
29775.674,121.0
29785.098,158.0
29792.283,163.0
29805.104,84.0
29812.333,83.0
29822.359,100.0
29832.345,95.0
29845.097,121.0
29852.359,84.0
29865.097,84.0
29872.374,79.0
29885.752,93.0
29895.773,133.0
29905.378,86.0
29912.602,91.0
29925.098,86.0
29932.652,122.0
29942.679,83.0
29952.667,84.0
29965.101,87.0
29972.68,84.0
29985.101,81.0
29992.693,106.0
30002.725,87.0
30012.718,131.0
30025.345,89.0
30032.854,83.0
30045.106,88.0
30052.903,88.0
30062.982,81.0
30072.915,82.0
30085.108,80.0
30092.934,110.0
30105.106,95.0
30112.955,120.0
30122.986,89.0
30132.962,115.0
30145.339,84.0
30153.09,120.0
30165.109,83.0
30173.137,82.0
30183.167,102.0
30193.149,84.0
30205.108,104.0
30213.165,128.0
30225.106,87.0
30233.179,148.0
30243.209,83.0
30253.211,110.0
30265.321,157.0
30273.364,157.0
30285.106,150.0
30293.422,153.0
30303.448,136.0
30313.439,133.0
30325.105,141.0
30333.454,149.0
30345.111,84.0
30353.468,89.0
30363.503,94.0
30373.487,135.0
30385.327,85.0
30393.653,84.0
30405.108,81.0
30413.714,89.0
30423.742,84.0
30433.727,119.0
30445.112,85.0
30453.741,91.0
30465.109,84.0
30473.756,82.0
30483.787,91.0
30493.773,86.0
30505.362,84.0
30514.0,102.0
30525.109,86.0
30534.057,118.0
30544.089,84.0
30554.074,86.0
30565.11,94.0
30574.088,84.0
30585.108,80.0
30594.099,92.0
30604.156,99.0
30614.122,115.0
30625.384,88.0
30634.273,101.0
30645.112,84.0
30654.318,85.0
30664.351,94.0
30674.335,82.0
30685.111,81.0
30694.351,83.0
30705.111,156.0
30714.364,149.0
30724.397,107.0
30734.385,113.0
30745.222,148.0
30754.559,142.0
30765.168,133.0
30774.608,130.0
30784.644,114.0
30794.624,159.0
30805.114,127.0
30814.638,144.0
30825.115,97.0
30834.652,104.0
30844.69,85.0
30854.673,107.0
30865.189,83.0
30874.796,98.0
30885.113,83.0
30894.84,84.0
30904.869,84.0
30914.857,153.0
30925.114,84.0
30934.871,101.0
30945.116,86.0
30954.886,84.0
30964.917,94.0
30974.902,105.0
30985.262,90.0
30995.069,82.0
31005.122,79.0
31015.121,92.0
31025.151,92.0
31035.12,100.0
31045.118,95.0
31055.122,85.0
31065.117,98.0
31075.12,89.0
31085.151,114.0
31095.262,114.0
31105.325,89.0
31115.122,97.0
31125.117,91.0
31135.12,91.0
31145.145,88.0
31155.124,103.0
31165.117,88.0
31175.121,91.0
31185.125,84.0
31195.119,89.0
31205.149,126.0
31215.48,105.0
31225.379,90.0
31235.121,87.0
31245.118,104.0
31255.119,85.0
31265.141,94.0
31275.122,96.0
31285.116,88.0
31295.166,94.0
31305.116,81.0
31315.122,83.0
31325.148,96.0
31335.751,91.0
31345.359,84.0
31355.123,86.0
31365.119,88.0
31375.169,79.0
31385.193,81.0
31395.123,83.0
31405.118,92.0
31415.12,155.0
31425.117,105.0
31435.119,100.0
31445.144,88.0
31455.728,112.0
31465.12,87.0
31475.124,81.0
31485.123,87.0
31495.12,99.0
31505.139,107.0
31515.12,153.0
31525.121,146.0
31535.121,136.0
31545.122,133.0
31555.12,113.0
31565.145,91.0
31575.776,128.0
31585.121,144.0
31595.143,138.0
31605.126,127.0
31615.134,133.0
31625.16,136.0
31635.124,134.0
31645.122,135.0
31655.122,158.0
31665.136,159.0
31675.121,158.0
31685.148,105.0
31695.831,95.0
31705.398,166.0
31715.122,133.0
31725.121,128.0
31735.124,157.0
31745.154,148.0
31755.121,154.0
31765.121,159.0
31775.122,161.0
31785.121,158.0
31795.121,145.0
31805.146,114.0
31815.778,115.0
31825.188,82.0
31835.122,84.0
31845.12,81.0
31855.123,82.0
31865.15,94.0
31875.124,83.0
31885.124,115.0
31895.125,141.0
31905.123,86.0
31915.123,141.0
31925.151,104.0
31935.754,114.0
31945.348,85.0
31955.126,86.0
31965.127,83.0
31975.128,81.0
31985.154,121.0
31995.125,93.0
32005.126,81.0
32015.128,86.0
32025.126,83.0
32035.126,81.0
32045.15,139.0
32055.741,103.0
32065.153,85.0
32075.127,89.0
32085.125,83.0
32095.126,85.0
32105.143,88.0
32115.126,83.0
32125.127,100.0
32135.126,91.0
32145.126,84.0
32155.127,83.0
32165.151,120.0
32175.743,108.0
32185.355,140.0
32195.128,126.0
32205.127,89.0
32215.129,139.0
32225.154,89.0
32235.129,120.0
32245.131,133.0
32255.13,140.0
32265.127,140.0
32275.171,140.0
32285.198,128.0
32295.821,119.0
32305.277,84.0
32315.13,85.0
32325.129,90.0
32335.129,81.0
32345.156,84.0
32355.129,83.0
32365.128,89.0
32375.129,83.0
32385.13,82.0
32395.13,111.0
32405.156,90.0
32415.802,113.0
32425.331,85.0
32435.131,129.0
32445.13,133.0
32455.13,158.0
32465.155,133.0
32475.131,148.0
32485.132,151.0
32495.132,83.0
32505.131,106.0
32515.129,84.0
32525.156,97.0
32535.743,114.0
32545.435,97.0
32555.13,86.0
32565.131,83.0
32575.132,86.0
32585.16,89.0
32595.137,94.0
32605.131,81.0
32615.131,83.0
32625.131,83.0
32635.131,84.0
32645.155,85.0
32655.823,99.0
32665.169,87.0
32675.13,90.0
32685.131,83.0
32695.131,87.0
32705.157,86.0
32715.132,80.0
32725.134,85.0
32735.132,154.0
32745.132,84.0
32755.131,84.0
32765.161,132.0
32775.787,115.0
32785.402,96.0
32795.131,172.0
32805.135,102.0
32815.134,140.0
32825.153,144.0
32835.133,117.0
32845.134,117.0
32855.132,135.0
32865.135,141.0
32875.136,120.0
32885.164,99.0
32895.79,139.0
32905.382,146.0
32915.137,155.0
32925.138,130.0
32935.139,159.0
32945.166,84.0
32955.136,92.0
32965.135,89.0
32975.136,86.0
32985.137,83.0
32995.135,82.0
33005.162,89.0
33015.854,110.0
33025.36,83.0
33035.139,82.0
33045.139,91.0
33055.137,82.0
33065.167,92.0
33075.137,84.0
33085.138,86.0
33095.138,86.0
33105.136,86.0
33115.136,102.0
33125.162,105.0
33135.735,100.0
33145.156,84.0
33155.139,86.0
33165.138,85.0
33175.138,81.0
33185.164,83.0
33195.141,84.0
33205.141,140.0
33215.141,131.0
33225.137,142.0
33235.14,125.0
33245.168,106.0
33255.774,114.0
33265.395,80.0
33275.141,104.0
33285.14,102.0
33295.157,83.0
33305.181,84.0
33315.144,83.0
33325.142,96.0
33335.144,83.0
33345.143,83.0
33355.144,94.0
33365.173,93.0
33375.824,125.0
33385.398,99.0
33395.147,94.0
33405.146,89.0
33415.171,116.0
33425.198,154.0
33435.146,137.0
33445.146,133.0
33455.146,104.0
33465.146,143.0
33475.146,135.0
33485.171,109.0
33495.958,98.0
33505.459,127.0
33515.146,127.0
33525.145,148.0
33535.148,150.0
33545.172,128.0
33555.147,132.0
33565.147,136.0
33575.145,102.0
33585.146,86.0
33595.146,82.0
33605.173,101.0
33615.73,112.0
33625.389,81.0
33635.146,83.0
33645.151,83.0
33655.148,81.0
33665.167,84.0
33675.149,83.0
33685.175,83.0
33695.149,83.0
33705.149,88.0
33715.149,86.0
33725.209,102.0
33735.935,113.0
33745.361,104.0
33755.151,86.0
33765.15,132.0
33775.149,141.0
33785.174,84.0
33795.15,132.0
33805.151,94.0
33815.15,108.0
33825.151,119.0
33835.154,94.0
33845.179,117.0
33855.866,100.0
33865.39,83.0
33875.15,84.0
33885.149,82.0
33895.151,101.0
33905.175,105.0
33915.152,103.0
33925.153,139.0
33935.15,153.0
33945.15,126.0
33955.15,129.0
33965.175,104.0
33975.892,115.0
33985.213,115.0
33995.151,140.0
34005.149,98.0
34015.152,83.0
34025.178,118.0
34035.151,140.0
34045.152,144.0
34055.152,86.0
34065.152,109.0
34075.151,84.0
34085.176,102.0
34095.821,104.0
34105.378,83.0
34115.164,82.0
34125.154,84.0
34135.151,83.0
34145.177,84.0
34155.152,85.0
34165.152,97.0
34175.155,86.0
34185.151,84.0
34195.153,96.0
34205.199,90.0
34215.81,111.0
34225.377,83.0
34235.155,147.0
34245.154,101.0
34255.154,128.0
34265.18,115.0
34275.156,107.0
34285.157,149.0
34295.157,151.0
34305.156,153.0
34315.161,138.0
34325.187,106.0
34335.826,143.0
34345.44,88.0
34355.157,82.0
34365.158,84.0
34375.159,84.0
34385.187,81.0
34395.159,82.0
34405.163,105.0
34415.16,86.0
34425.161,86.0
34435.161,100.0
34445.204,107.0
34455.61,114.0
34465.404,87.0
34475.164,101.0
34485.185,121.0
34495.161,103.0
34505.184,101.0
34515.165,100.0
34525.186,101.0
34535.164,102.0
34545.2,100.0
34555.163,104.0
34565.189,138.0
34575.902,122.0
34585.649,107.0
34595.165,105.0
34605.186,105.0
34615.163,110.0
34625.188,102.0
34635.165,109.0
34645.185,106.0
34655.164,121.0
34665.185,104.0
34675.164,102.0
34685.217,117.0
34695.773,118.0
34705.787,102.0
34715.171,102.0
34725.194,121.0
34735.17,104.0
34745.197,101.0
34755.173,100.0
34765.204,102.0
34775.169,83.0
34785.191,86.0
34795.17,125.0
34805.198,114.0
34815.748,130.0
34825.775,83.0
34835.171,84.0
34845.185,86.0
34855.17,102.0
34865.194,131.0
34875.171,127.0
34885.184,141.0
34895.17,144.0
34905.188,143.0
34915.172,104.0
34925.196,110.0
34935.732,114.0
34945.764,89.0
34955.174,85.0
34965.189,84.0
34975.172,84.0
34985.207,85.0
34995.173,102.0
35005.185,84.0
35015.173,136.0
35025.187,138.0
35035.174,146.0
35045.2,100.0
35056.136,136.0
35062.283,101.0
35075.174,97.0
35085.188,97.0
35095.173,104.0
35105.197,119.0
35115.174,101.0
35125.189,101.0
35135.175,155.0
35145.19,84.0
35155.173,102.0
35165.239,91.0
35175.737,117.0
35185.773,91.0
35195.175,84.0
35205.22,81.0
35215.173,94.0
35225.203,104.0
35235.175,100.0
35245.191,84.0
35255.175,86.0
35265.189,97.0
35275.178,85.0
35285.233,96.0
35295.869,94.0
35305.891,102.0
35315.176,84.0
35325.189,82.0
35335.178,132.0
35345.204,133.0
35355.176,158.0
35362.272,154.0
35375.175,138.0
35382.288,104.0
35395.176,159.0
35405.206,96.0
35415.892,105.0
35422.452,101.0
35435.176,83.0
35442.504,83.0
35455.179,103.0
35465.21,102.0
35475.178,100.0
35482.536,104.0
35495.177,87.0
35502.55,89.0
35515.177,82.0
35525.203,117.0
35535.904,119.0
35542.678,102.0
35555.18,86.0
35562.734,96.0
35575.18,139.0
35585.211,139.0
35595.18,146.0
35602.763,132.0
35615.182,92.0
35622.78,140.0
35635.18,88.0
35645.204,128.0
35655.82,114.0
35662.98,136.0
35675.183,135.0
35682.971,135.0
35695.183,163.0
35705.22,155.0
35715.184,143.0
35723.002,119.0
35735.182,96.0
35743.017,133.0
35755.185,135.0
35765.21,94.0
35775.913,139.0
35783.162,86.0
35795.186,84.0
35803.22,82.0
35815.191,102.0
35825.219,85.0
35835.19,86.0
35843.246,157.0
35855.19,90.0
35863.263,83.0
35875.188,100.0
35885.213,109.0
35895.744,114.0
35903.428,86.0
35915.188,84.0
35923.482,87.0
35935.188,84.0
35945.219,81.0
35955.187,85.0
35963.511,82.0
35975.186,85.0
35983.527,91.0
35995.197,109.0
36005.221,110.0
36015.873,109.0
36023.654,94.0
36035.191,82.0
36043.718,84.0
36055.188,100.0
36065.221,86.0
36075.189,82.0
36083.747,84.0
36095.188,83.0
36103.763,82.0
36115.229,87.0
36125.254,95.0
36135.901,112.0
36143.83,88.0
36155.204,84.0
36163.881,82.0
36175.191,101.0
36185.227,87.0
36195.196,84.0
36203.911,93.0
36215.192,84.0
36223.926,86.0
36235.213,88.0
36245.239,95.0
36255.797,110.0
36264.085,124.0
36275.196,83.0
36284.139,82.0
36295.196,84.0
36305.225,86.0
36315.195,86.0
36324.167,101.0
36335.198,82.0
36344.183,86.0
36355.196,163.0
36365.247,102.0
36375.939,95.0
36384.348,132.0
36395.197,115.0
36404.394,108.0
36415.197,110.0
36425.232,96.0
36435.199,81.0
36444.419,100.0
36455.198,134.0
36464.433,89.0
36475.2,102.0
36485.228,98.0
36495.931,122.0
36504.558,102.0
36515.201,91.0
36524.62,89.0
36535.201,102.0
36545.234,106.0
36555.202,92.0
36564.651,105.0
36575.201,81.0
36584.665,83.0
36595.203,101.0
36605.228,97.0
36615.757,112.0
36624.814,104.0
36635.202,94.0
36644.876,83.0
36655.203,104.0
36665.234,105.0
36675.203,130.0
36684.896,136.0
36695.204,157.0
36704.913,151.0
36715.221,116.0
36725.248,123.0
36735.838,112.0
36745.079,139.0
36755.206,97.0
36765.133,130.0
36775.206,145.0
36785.237,85.0
36795.203,87.0
36805.164,82.0
36815.203,101.0
36825.18,117.0
36835.205,101.0
36845.236,128.0
36855.88,101.0
36865.271,86.0
36875.203,94.0
36885.207,84.0
36895.203,84.0
36905.24,82.0
36915.205,89.0
36925.205,84.0
36935.203,81.0
36945.207,86.0
36955.205,84.0
36965.231,84.0
36975.869,114.0
36985.446,134.0
36995.204,156.0
37005.208,157.0
37015.203,109.0
37025.228,95.0
37035.204,112.0
37045.208,135.0
37055.202,158.0
37065.209,116.0
37075.204,91.0
37085.23,87.0
37095.93,139.0
37105.332,90.0
37115.205,81.0
37125.207,125.0
37135.228,114.0
37145.261,94.0
37155.203,105.0
37165.212,83.0
37175.205,86.0
37185.23,152.0
37195.206,100.0
37205.232,93.0
37215.873,102.0
37225.467,120.0
37235.204,82.0
37245.205,83.0
37255.207,100.0
37265.238,90.0
37275.209,81.0
37285.211,83.0
37295.207,81.0
37305.208,157.0
37315.211,145.0
37325.235,108.0
37335.878,109.0
37345.438,115.0
37355.213,125.0
37365.211,99.0
37375.215,114.0
37385.246,104.0
37395.216,92.0
37405.213,85.0
37415.215,83.0
37425.215,84.0
37435.213,88.0
37445.239,87.0
37455.876,117.0
37465.462,88.0
37475.216,92.0
37485.215,89.0
37495.215,86.0
37505.247,85.0
37515.215,102.0
37525.218,88.0
37535.216,86.0
37545.213,84.0
37555.215,81.0
37565.242,92.0
37575.79,117.0
37585.499,81.0
37595.218,99.0
37605.217,85.0
37615.217,91.0
37625.249,88.0
37635.216,86.0
37645.219,86.0
37655.216,83.0
37665.219,92.0
37675.216,91.0
37685.252,91.0
37695.883,109.0
37705.22,149.0
37715.218,149.0
37725.219,126.0
37735.22,129.0
37745.249,159.0
37755.219,115.0
37765.22,149.0
37775.217,135.0
37785.218,101.0
37795.22,115.0
37805.249,138.0
37815.885,114.0
37825.464,141.0
37835.22,124.0
37845.219,104.0
37855.22,102.0
37865.252,113.0
37875.218,84.0
37885.219,84.0
37895.219,120.0
37905.219,102.0
37915.221,84.0
37925.247,112.0
37935.898,136.0
37945.301,82.0
37955.219,102.0
37965.22,119.0
37975.221,86.0
37985.253,88.0
37995.222,101.0
38005.221,82.0
38015.22,102.0
38025.218,101.0
38035.218,100.0
38045.243,130.0
38055.861,117.0
38065.306,85.0
38075.223,100.0
38085.221,87.0
38095.223,83.0
38105.255,102.0
38115.222,83.0
38125.224,101.0
38135.223,85.0
38145.22,172.0
38155.222,175.0
38165.252,104.0
38175.907,132.0
38185.445,161.0
38195.221,154.0
38205.222,130.0
38215.222,106.0
38225.257,112.0
38235.224,110.0
38245.222,92.0
38255.223,153.0
38265.221,112.0
38275.222,102.0
38285.272,140.0
38295.835,117.0
38305.303,102.0
38315.225,91.0
38325.223,79.0
38335.226,101.0
38345.262,105.0
38355.226,87.0
38365.225,86.0
38375.227,104.0
38385.225,84.0
38395.224,101.0
38405.252,92.0
38415.767,135.0
38425.315,104.0
38435.228,101.0
38445.223,86.0
38455.227,102.0
38465.252,161.0
38475.224,84.0
38485.224,102.0
38495.224,89.0
38505.225,105.0
38515.223,86.0
38525.257,109.0
38535.692,141.0
38545.225,94.0
38555.225,103.0
38565.226,81.0
38575.239,101.0
38583.971,100.0
38595.225,81.0
38605.262,81.0
38615.224,84.0
38625.223,94.0
38635.224,101.0
38645.252,129.0
38655.932,119.0
38665.464,162.0
38675.226,158.0
38685.224,155.0
38695.23,148.0
38705.26,155.0
38715.226,135.0
38725.224,128.0
38735.223,117.0
38745.226,109.0
38755.224,102.0
38765.249,107.0
38776.072,118.0
38785.304,92.0
38795.226,127.0
38805.225,131.0
38815.226,141.0
38825.256,140.0
38835.228,141.0
38845.227,142.0
38855.23,141.0
38865.229,154.0
38875.228,156.0
38890.575,105.0
38896.127,107.0
38906.15,136.0
38912.308,138.0
38925.303,136.0
38935.32,153.0
38943.424,138.0
38953.453,140.0
38963.89,135.0
38974.861,135.0
38985.307,117.0
38995.325,128.0
39005.388,107.0
39015.405,81.0
39027.174,106.0
39032.315,85.0
39046.662,105.0
39054.772,145.0
39064.798,104.0
39074.811,109.0
39085.188,101.0
39096.137,132.0
39105.113,104.0
39115.214,120.0
39125.238,135.0
39135.212,155.0
39147.85,107.0
39156.64,122.0
39164.357,124.0
39174.14,136.0
39184.174,110.0
39194.223,149.0
39202.491,172.0
39212.509,141.0
39222.537,121.0
39232.555,94.0
39242.578,137.0
39253.782,105.0
39263.812,145.0
39273.834,159.0
39283.867,128.0
39293.891,164.0
39303.924,172.0
39313.943,162.0
39323.966,150.0
39333.984,152.0
39344.01,144.0
39354.028,146.0
39364.061,147.0
39375.639,140.0
39382.519,123.0
39392.733,164.0
39402.75,102.0
39412.772,103.0
39422.795,91.0
39432.815,109.0
39442.835,109.0
39452.855,102.0
39462.872,99.0
39472.889,112.0
39483.381,115.0
39493.41,112.0
39503.433,101.0
39513.451,103.0
39523.543,102.0
39533.563,103.0
39543.583,104.0
39553.623,101.0
39563.643,102.0
39573.664,101.0
39583.683,104.0
39593.73,103.0
39603.75,107.0
39613.773,117.0
39623.789,86.0
39633.808,101.0
39643.826,137.0
39653.845,133.0
39663.864,129.0
39673.883,134.0
39683.9,133.0
39693.918,132.0
39703.937,129.0
39713.957,100.0
39723.976,104.0
39734.002,111.0
39744.019,127.0
39754.039,111.0
39764.077,120.0
39772.504,134.0
39782.522,138.0
39796.196,132.0
39803.394,132.0
39813.414,100.0
39823.431,84.0
39833.465,100.0
39843.484,86.0
39853.513,115.0
39863.532,81.0
39873.551,128.0
39883.636,121.0
39893.653,122.0
39903.678,138.0
39913.705,109.0
39923.724,86.0
39933.753,145.0
39943.772,145.0
39953.795,149.0
39963.83,150.0
39974.722,151.0
39984.75,156.0
39993.494,166.0
40003.512,151.0
40013.532,146.0
40023.573,149.0
40033.591,145.0
40043.611,138.0
40053.634,135.0
40063.653,143.0
40073.671,136.0
40083.689,141.0
40093.715,151.0
40103.733,133.0
40113.75,132.0
40123.769,137.0
40133.789,133.0
40143.809,135.0
40153.829,138.0
40163.849,132.0
40173.868,135.0
40183.888,133.0
40193.906,130.0
40203.928,140.0
40213.949,140.0
40223.974,133.0
40233.994,147.0
40244.013,140.0
40254.033,146.0
40264.059,148.0
40274.078,146.0
40284.105,143.0
40292.317,145.0
40302.5,143.0
40312.521,143.0
40323.153,148.0
40333.175,148.0
40343.194,145.0
40353.218,141.0
40363.237,145.0
40373.269,148.0
40383.288,146.0
40393.317,145.0
40403.335,145.0
40413.358,142.0
40423.377,143.0
40433.4,149.0
40443.42,151.0
40453.444,149.0
40463.992,151.0
40474.018,146.0
40484.037,148.0
40494.058,150.0
40504.08,150.0
40514.104,148.0
40522.503,141.0
40532.519,147.0
40542.534,130.0
40552.562,131.0
40564.288,104.0
40574.315,120.0
40582.801,159.0
40592.826,149.0
40602.843,151.0
40612.861,150.0
40622.879,151.0
40632.897,148.0
40642.92,176.0
40652.941,173.0
40662.957,151.0
40672.979,151.0
40683.169,140.0
40693.778,158.0
40703.798,148.0
40713.817,172.0
40723.835,166.0
40733.853,170.0
40743.874,176.0
40753.895,172.0
40763.916,165.0
40773.936,169.0
40783.955,171.0
40793.977,146.0
40804.004,151.0
40814.023,164.0
40824.048,154.0
40834.067,151.0
40844.088,149.0
40854.107,148.0
40864.136,148.0
40872.513,147.0
40882.554,172.0
40892.577,151.0
40902.592,148.0
40912.613,136.0
40922.985,148.0
40933.834,141.0
40943.852,146.0
40953.879,149.0
40963.898,144.0
40973.923,142.0
40983.94,149.0
40993.965,145.0
41003.993,148.0
41014.017,144.0
41024.035,145.0
41034.063,145.0
41044.082,145.0
41054.11,151.0
41064.134,151.0
41074.466,146.0
41082.513,174.0
41092.531,172.0
41102.55,175.0
41112.569,174.0
41122.589,165.0
41132.608,163.0
41142.628,154.0
41152.646,158.0
41163.403,151.0
41173.929,140.0
41183.954,145.0
41193.974,151.0
41203.991,146.0
41214.012,144.0
41224.032,146.0
41234.053,143.0
41244.075,155.0
41254.093,143.0
41264.114,144.0
41272.513,151.0
41286.204,151.0
41293.517,141.0
41303.541,149.0
41313.561,144.0
41323.584,149.0
41333.606,147.0
41343.633,146.0
41353.654,148.0
41363.687,149.0
41373.706,150.0
41383.732,155.0
41393.752,136.0
41403.777,143.0
41414.03,143.0
41424.057,148.0
41434.074,163.0
41444.103,160.0
41454.126,169.0
41464.162,154.0
41472.529,153.0
41482.548,152.0
41492.566,171.0
41502.607,149.0
41512.625,149.0
41523.434,148.0
41534.198,143.0
41544.224,174.0
41552.982,167.0
41563.002,150.0
41573.019,147.0
41583.036,149.0
41593.055,153.0
41603.075,148.0
41613.095,153.0
41623.114,166.0
41633.131,162.0
41643.336,163.0
41653.744,107.0
41663.763,146.0
41673.788,145.0
41683.81,149.0
41693.909,149.0
41703.936,149.0
41713.952,145.0
41723.971,141.0
41733.992,143.0
41744.011,146.0
41754.037,145.0
41764.053,161.0
41774.072,146.0
41784.093,154.0
41794.124,146.0
41802.521,148.0
41812.54,145.0
41822.56,149.0
41832.595,145.0
41842.612,148.0
41852.634,149.0
41862.653,147.0
41872.671,137.0
41883.209,144.0
41893.688,98.0
41903.706,146.0
41913.725,146.0
41923.743,148.0
41933.761,142.0
41943.78,145.0
41953.8,174.0
41963.821,153.0
41973.842,148.0
41983.86,146.0
41993.877,139.0
42004.157,146.0
42014.185,148.0
42024.217,151.0
42034.242,176.0
42042.521,147.0
42052.549,153.0
42062.567,174.0
42072.583,184.0
42082.6,184.0
42092.619,185.0
42102.634,187.0
42112.67,177.0
42123.455,148.0
42133.478,152.0
42143.497,145.0
42153.516,168.0
42163.534,165.0
42173.553,162.0
42183.573,157.0
42193.646,152.0
42203.664,146.0
42213.683,145.0
42223.701,148.0
42233.72,143.0
42243.739,148.0
42253.933,143.0
42263.959,151.0
42273.976,169.0
42283.996,148.0
42294.015,151.0
42304.038,151.0
42314.059,146.0
42324.078,148.0
42334.1,154.0
42344.118,149.0
42352.377,136.0
42364.178,144.0
42374.198,157.0
42384.218,143.0
42392.499,146.0
42402.527,141.0
42412.551,165.0
42422.578,147.0
42432.601,145.0
42442.619,149.0
42452.642,153.0
42462.661,145.0
42472.683,146.0
42484.102,149.0
42494.13,106.0
42504.15,92.0
42514.182,172.0
42522.527,148.0
42532.551,149.0
42542.572,146.0
42552.593,147.0
42562.614,145.0
42572.65,152.0
42582.67,144.0
42592.693,171.0
42603.589,151.0
42613.608,149.0
42623.632,144.0
42633.655,162.0
42643.674,158.0
42653.699,153.0
42663.724,180.0
42673.752,153.0
42683.77,150.0
42693.793,149.0
42703.811,146.0
42713.839,145.0
42723.862,153.0
42733.878,169.0
42743.897,92.0
42753.921,140.0
42763.942,151.0
42773.97,149.0
42783.997,146.0
42794.026,149.0
42804.045,147.0
42814.074,149.0
42824.119,149.0
42834.146,153.0
42844.177,173.0
42854.207,146.0
42864.226,134.0
42872.531,117.0
42882.547,144.0
42892.571,147.0
42902.592,148.0
42912.614,145.0
42922.631,149.0
42932.654,145.0
42942.671,149.0
42952.689,163.0
42966.43,147.0
42974.567,168.0
42982.58,164.0
42993.505,150.0
43003.522,149.0
43013.549,148.0
43023.57,148.0
43033.597,143.0
43043.619,145.0
43053.652,149.0
43063.67,145.0
43073.698,147.0
43083.719,171.0
43093.747,142.0
43103.764,138.0
43113.784,149.0
43123.808,145.0
43133.827,144.0
43143.852,141.0
43154.144,168.0
43164.17,169.0
43172.529,169.0
43182.547,166.0
43192.623,167.0
43202.72,153.0
43216.712,148.0
43223.861,158.0
43234.382,141.0
43242.533,151.0
43252.554,148.0
43262.575,146.0
43272.596,154.0
43282.623,170.0
43292.646,156.0
43302.665,148.0
43312.683,150.0
43323.472,151.0
43333.491,138.0
43343.514,165.0
43353.539,148.0
43363.559,148.0
43373.579,138.0
43383.599,139.0
43393.621,155.0
43403.639,154.0
43413.657,142.0
43423.677,153.0
43433.697,143.0
43444.445,151.0
43454.466,152.0
43464.491,169.0
43474.52,146.0
43484.553,144.0
43492.537,149.0
43502.563,146.0
43512.579,145.0
43522.598,145.0
43532.62,149.0
43542.638,148.0
43552.657,146.0
43563.131,148.0
43574.091,156.0
43584.121,169.0
43594.143,149.0
43604.174,144.0
43612.535,99.0
43622.563,107.0
43632.628,102.0
43642.651,105.0
43652.669,146.0
43662.694,139.0
43672.711,156.0
43682.727,148.0
43692.866,105.0
43706.944,143.0
43713.164,153.0
43723.187,118.0
43733.206,144.0
43743.23,150.0
43753.248,146.0
43763.273,129.0
43773.291,123.0
43783.317,172.0
43793.336,154.0
43803.355,93.0
43813.374,118.0
43822.265,106.0
43832.812,105.0
43842.83,145.0
43852.848,105.0
43862.866,146.0
43872.883,147.0
43882.902,162.0
43892.92,164.0
43902.938,146.0
43912.958,164.0
43923.198,114.0
43934.389,104.0
43946.502,125.0
43953.572,154.0
43963.667,114.0
43973.692,119.0
43983.85,146.0
43993.874,151.0
44003.898,151.0
44013.922,146.0
44023.941,149.0
44033.965,145.0
44043.986,156.0
44054.017,149.0
44064.038,152.0
44074.055,166.0
44084.075,148.0
44094.094,153.0
44104.117,151.0
44114.135,150.0
44124.157,159.0
44134.177,148.0
44142.552,159.0
44152.588,163.0
44163.462,154.0
44173.489,109.0
44183.513,83.0
44193.532,171.0
44203.552,176.0
44213.57,174.0
44223.591,179.0
44233.613,135.0
44243.633,179.0
44253.654,155.0
44263.674,148.0
44273.692,148.0
44284.064,165.0
44295.176,154.0
44305.203,152.0
44315.229,149.0
44322.544,151.0
44332.567,146.0
44342.585,157.0
44352.606,152.0
44362.625,110.0
44372.644,157.0
44382.662,148.0
44392.679,151.0
44403.128,154.0
44413.929,100.0
44423.952,115.0
44433.971,162.0
44443.992,168.0
44454.012,166.0
44464.036,110.0
44474.056,152.0
44484.079,146.0
44494.097,149.0
44504.116,152.0
44514.137,147.0
44524.163,150.0
44534.185,157.0
44544.213,99.0
44554.235,178.0
44562.549,146.0
44572.578,179.0
44582.596,140.0
44592.618,153.0
44602.635,148.0
44612.66,151.0
44623.439,91.0
44633.467,107.0
44643.554,90.0
44653.577,109.0
44663.597,101.0
44673.626,120.0
44683.841,128.0
44693.865,97.0
44703.889,151.0
44713.915,153.0
44723.934,151.0
44733.959,154.0
44743.978,185.0
44754.008,147.0
44764.032,158.0
44774.052,155.0
44784.075,149.0
44794.095,109.0
44804.118,149.0
44814.138,148.0
44824.184,157.0
44832.575,165.0
44842.596,143.0
44852.613,172.0
44862.634,144.0
44872.652,171.0
44883.376,147.0
44893.586,171.0
44903.616,146.0
44913.635,153.0
44923.656,149.0
44933.675,153.0
44943.699,149.0
44953.718,169.0
44963.737,148.0
44973.76,172.0
44983.778,156.0
44993.8,170.0
45003.822,152.0
45013.842,151.0
45023.87,146.0
45033.889,163.0
45043.913,149.0
45053.932,171.0
45063.951,176.0
45073.97,168.0
45083.991,150.0
45094.014,169.0
45104.033,164.0
45114.07,163.0
45124.091,147.0
45134.11,156.0
45144.13,151.0
45154.149,148.0
45164.168,149.0
45174.188,151.0
45184.222,151.0
45192.559,176.0
45202.578,151.0
45212.609,149.0
45223.249,145.0
45233.276,149.0
45243.382,174.0
45253.41,147.0
45263.434,145.0
45273.454,154.0
45283.478,149.0
45293.497,153.0
45303.52,149.0
45313.542,153.0
45323.567,146.0
45333.586,148.0
45343.612,147.0
45353.638,145.0
45363.661,151.0
45373.699,182.0
45383.725,176.0
45393.748,171.0
45403.774,158.0
45413.794,175.0
45423.821,176.0
45433.839,154.0
45443.864,151.0
45453.883,158.0
45463.913,149.0
45473.936,159.0
45483.964,148.0
45493.984,156.0
45504.015,155.0
45514.034,161.0
45524.059,145.0
45534.08,172.0
45544.102,148.0
45554.122,148.0
45562.39,148.0
45572.561,153.0
45582.578,143.0
45592.597,176.0
45603.469,149.0
45613.487,154.0
45623.51,179.0
45633.528,149.0
45643.548,149.0
45653.567,155.0
45663.59,154.0
45673.611,156.0
45683.632,151.0
45693.653,154.0
45703.675,172.0
45713.696,170.0
45723.715,153.0
45733.735,149.0
45743.763,158.0
45753.782,169.0
45763.801,172.0
45773.821,145.0
45783.844,148.0
45793.864,176.0
45803.883,154.0
45813.903,151.0
45823.921,151.0
45833.94,156.0
45843.958,153.0
45853.979,156.0
45864.003,149.0
45874.036,149.0
45884.063,145.0
45894.081,150.0
45904.128,147.0
45914.146,149.0
45924.17,150.0
45934.19,150.0
45942.572,151.0
45952.595,146.0
45963.04,153.0
45973.429,159.0
45983.45,158.0
45993.468,146.0
46003.488,148.0
46013.506,145.0
46023.525,147.0
46033.544,143.0
46043.562,144.0
46053.585,149.0
46063.606,151.0
46073.628,148.0
46083.673,154.0
46093.693,166.0
46103.712,142.0
46113.732,169.0
46123.751,151.0
46133.771,149.0
46143.79,164.0
46153.808,146.0
46163.834,163.0
46173.85,149.0
46183.867,145.0
46193.886,165.0
46203.904,156.0
46213.924,168.0
46223.941,151.0
46233.96,158.0
46243.979,153.0
46253.998,169.0
46264.02,145.0
46274.039,151.0
46284.059,145.0
46292.401,145.0
46302.592,174.0
46312.609,150.0
46323.546,155.0
46333.777,151.0
46343.804,146.0
46353.822,144.0
46363.841,145.0
46373.865,170.0
46383.89,149.0
46393.916,148.0
46403.933,145.0
46413.961,166.0
46423.976,146.0
46433.997,148.0
46444.02,145.0
46454.038,164.0
46464.056,146.0
46474.076,155.0
46484.098,148.0
46494.118,152.0
46504.169,153.0
46514.189,146.0
46522.57,149.0
46532.588,148.0
46542.608,149.0
46552.627,154.0
46563.158,147.0
46573.644,148.0
46583.662,171.0
46593.682,174.0
46603.7,173.0
46613.721,177.0
46623.743,171.0
46633.763,169.0
46643.781,174.0
46653.8,166.0
46663.823,148.0
46673.843,145.0
46683.865,152.0
46693.889,149.0
46703.905,144.0
46713.925,137.0
46723.943,119.0
46733.962,167.0
46743.984,150.0
46754.005,141.0
46764.024,145.0
46774.043,147.0
46784.062,146.0
46794.084,143.0
46804.102,146.0
46814.12,153.0
46824.25,148.0
46834.281,152.0
46842.599,141.0
46852.623,142.0
46862.64,151.0
46872.66,148.0
46882.68,149.0
46892.702,141.0
46902.719,134.0
46912.741,109.0
46923.841,101.0
46933.873,106.0
46944.123,110.0
46954.146,97.0
46964.165,163.0
46974.193,183.0
46984.226,160.0
46992.581,171.0
47002.6,170.0
47012.625,136.0
47022.647,176.0
47032.669,184.0
47043.318,157.0
47053.349,175.0
47063.368,153.0
47073.387,152.0
47083.408,151.0
47093.426,153.0
47103.447,156.0
47113.466,172.0
47123.486,154.0
47133.504,157.0
47143.525,157.0
47153.544,157.0
47163.564,179.0
47173.928,176.0
47183.951,180.0
47193.971,199.0
47203.991,160.0
47214.024,186.0
47224.051,154.0
47234.07,167.0
47244.088,174.0
47254.111,163.0
47264.262,192.0
47274.282,197.0
47284.314,193.0
47293.758,202.0
47303.783,196.0
47313.805,197.0
47323.827,207.0
47333.848,216.0
47343.873,201.0
47353.892,195.0
47363.913,194.0
47373.932,195.0
47383.952,197.0
47393.972,193.0
47403.993,197.0
47414.207,192.0
47424.226,196.0
47434.254,190.0
47444.273,197.0
47452.586,195.0
47462.614,197.0
47472.633,192.0
47482.658,198.0
47492.678,193.0
47502.705,200.0
47512.726,194.0
47523.328,195.0
47533.422,191.0
47544.119,197.0
47554.141,198.0
47564.169,195.0
47574.187,200.0
47584.225,198.0
47594.243,200.0
47604.276,195.0
47612.586,193.0
47622.609,192.0
47632.627,192.0
47643.263,196.0
47653.841,192.0
47663.863,200.0
47673.883,197.0
47683.903,197.0
47692.475,195.0
47702.512,195.0
47712.587,193.0
47722.603,197.0
47733.374,191.0
47743.394,192.0
47753.417,206.0
47763.441,151.0
47774.038,148.0
47784.074,177.0
47794.093,164.0
47804.121,153.0
47814.141,177.0
47824.175,161.0
47834.194,153.0
47844.222,143.0
47854.243,159.0
47864.273,150.0
47872.585,152.0
47886.304,172.0
47892.663,148.0
47903.83,182.0
47913.85,158.0
47923.868,157.0
47933.886,179.0
47943.906,185.0
47953.926,193.0
47963.946,208.0
47973.967,201.0
47983.985,203.0
47994.003,194.0
48004.049,202.0
48014.069,194.0
48024.092,184.0
48034.113,202.0
48044.135,196.0
48054.167,190.0
48064.191,203.0
48074.211,199.0
48084.241,210.0
48094.262,215.0
48104.32,216.0
48114.34,215.0
48124.388,208.0
48135.037,219.0
48142.628,210.0
48153.613,216.0
48163.677,213.0
48173.699,214.0
48183.722,221.0
48193.744,232.0
48203.766,202.0
48213.79,215.0
48223.809,217.0
48233.827,217.0
48243.846,212.0
48254.094,211.0
48261.789,214.0
48273.278,217.0
48283.306,221.0
48293.325,207.0
48303.354,211.0
48313.372,216.0
48323.404,209.0
48333.422,207.0
48343.45,215.0
48353.472,216.0
48363.494,213.0
48373.635,212.0
48383.658,211.0
48393.676,216.0
48403.695,216.0
48413.716,207.0
48423.735,205.0
48433.755,214.0
48443.78,213.0
48453.801,205.0
48463.825,214.0
48473.846,212.0
48483.883,219.0
48494.116,219.0
48504.136,209.0
48514.164,211.0
48524.183,221.0
48534.21,209.0
48544.237,210.0
48554.27,216.0
48564.294,210.0
48574.331,211.0
48582.599,211.0
48592.622,216.0
48603.301,210.0
48613.318,213.0
48623.813,223.0
48633.838,211.0
48643.856,221.0
48653.879,221.0
48663.904,204.0
48673.924,218.0
48683.946,198.0
48693.966,187.0
48703.986,192.0
48714.004,184.0
48724.36,177.0
48734.381,188.0
48744.403,181.0
48754.52,186.0
48764.544,185.0
48774.584,182.0
48784.63,177.0
48794.666,188.0
48802.606,202.0
48812.644,146.0
48822.663,164.0
48832.695,188.0
48843.816,200.0
48853.845,186.0
48864.236,177.0
48874.263,193.0
48884.285,180.0
48894.382,194.0
48904.421,198.0
48912.612,227.0
48922.628,215.0
48932.645,218.0
48942.662,216.0
48952.683,208.0
48963.544,211.0
48973.571,223.0
48983.894,210.0
48993.915,230.0
49003.935,215.0
49013.955,208.0
49023.977,213.0
49033.997,229.0
49044.017,210.0
49054.034,215.0
49064.057,223.0
49074.098,210.0
49084.12,210.0
49094.199,222.0
49104.219,214.0
49114.244,208.0
49124.275,216.0
49134.295,211.0
49144.332,216.0
49152.605,218.0
49162.627,214.0
49172.648,214.0
49182.67,223.0
49192.696,224.0
49203.868,200.0
49213.888,177.0
49224.107,211.0
49234.206,209.0
49244.229,215.0
49254.248,211.0
49264.275,218.0
49274.297,216.0
49284.318,214.0
49294.339,203.0
49304.376,210.0
49312.606,202.0
49323.488,204.0
49333.506,216.0
49343.527,216.0
49353.548,220.0
49363.582,217.0
49373.607,229.0
49383.635,221.0
49393.655,218.0
49403.683,210.0
49413.702,215.0
49423.734,186.0
49433.752,181.0
49443.774,167.0
49453.793,197.0
49463.811,190.0
49473.829,200.0
49483.849,179.0
49493.869,183.0
49503.895,188.0
49513.912,184.0
49523.93,185.0
49533.95,164.0
49543.97,203.0
49554.197,210.0
49564.356,185.0
49574.376,198.0
49585.985,195.0
49592.625,188.0
49604.723,194.0
49612.605,183.0
49622.623,210.0
49632.644,207.0
49643.419,208.0
49653.438,219.0
49663.458,226.0
49673.482,223.0
49683.694,182.0
49693.712,173.0
49705.52,187.0
49715.548,175.0
49725.579,145.0
49732.698,148.0
49742.721,173.0
49752.756,193.0
49762.778,200.0
49772.798,174.0
49782.816,186.0
49793.429,179.0
49803.55,190.0
49813.567,180.0
49824.276,151.0
49834.305,181.0
49844.323,194.0
49854.343,209.0
49864.369,211.0
49874.4,210.0
49882.607,202.0
49892.633,207.0
49902.649,212.0
49912.675,192.0
49924.37,143.0
49934.399,191.0
49944.419,198.0
49952.777,187.0
49962.798,172.0
49972.823,207.0
49982.842,203.0
49992.865,188.0
50002.88,192.0
50012.899,210.0
50022.92,189.0
50032.94,203.0
50044.288,193.0
50054.317,199.0
50064.344,191.0
50075.179,194.0
50084.061,213.0
50094.117,211.0
50104.141,211.0
50114.162,211.0
50124.183,205.0
50134.202,193.0
50144.222,176.0
50154.242,184.0
50164.268,208.0
50174.29,190.0
50184.46,208.0
50194.492,193.0
50202.862,229.0
50212.881,215.0
50222.901,217.0
50232.921,212.0
50242.941,200.0
50252.959,215.0
50262.978,212.0
50272.999,211.0
50283.878,194.0
50293.897,203.0
50303.919,210.0
50313.937,188.0
50323.97,185.0
50333.991,202.0
50344.024,213.0
50354.044,201.0
50364.07,213.0
50374.093,208.0
50384.122,165.0
50394.141,196.0
50404.17,208.0
50414.193,201.0
50422.528,177.0
50434.338,210.0
50442.619,215.0
50452.636,206.0
50462.655,204.0
50472.683,198.0
50482.706,205.0
50492.73,205.0
50502.749,156.0
50512.787,199.0
50523.753,179.0
50533.773,180.0
50544.294,164.0
50554.321,174.0
50562.714,148.0
50572.732,190.0
50582.751,190.0
50592.798,192.0
50606.43,185.0
50612.841,186.0
50622.859,180.0
50632.886,185.0
50644.115,180.0
50654.142,184.0
50664.162,147.0
50674.187,184.0
50684.207,147.0
50694.227,182.0
50704.251,141.0
50714.274,180.0
50722.609,190.0
50732.628,195.0
50742.646,190.0
50752.663,192.0
50763.818,181.0
50773.837,192.0
50783.857,196.0
50793.88,178.0
50803.899,133.0
50813.918,188.0
50823.944,178.0
50833.998,182.0
50841.723,189.0
50854.299,181.0
50862.613,180.0
50872.67,188.0
50883.266,184.0
50893.832,177.0
50903.861,167.0
50913.881,199.0
50923.901,178.0
50933.929,181.0
50943.965,180.0
50953.992,184.0
50964.011,149.0
50974.037,201.0
50984.054,160.0
50994.08,184.0
51004.099,148.0
51014.119,184.0
51024.149,191.0
51034.17,188.0
51044.192,183.0
51054.21,192.0
51064.237,192.0
51074.259,180.0
51084.281,187.0
51094.301,182.0
51102.612,181.0
51112.631,177.0
51124.139,148.0
51134.162,166.0
51144.208,153.0
51154.23,151.0
51164.248,143.0
51174.28,177.0
51184.314,179.0
51192.623,172.0
51202.808,184.0
51212.834,185.0
51222.852,146.0
51232.879,158.0
51243.322,179.0
51253.351,180.0
51263.376,174.0
51273.948,180.0
51284.016,188.0
51294.037,162.0
51304.068,188.0
51314.088,171.0
51324.115,180.0
51334.134,153.0
51344.154,171.0
51354.174,175.0
51364.193,139.0
51374.212,140.0
51384.232,151.0
51394.25,145.0
51404.269,187.0
51412.614,180.0
51422.639,177.0
51432.658,141.0
51442.678,179.0
51452.697,182.0
51462.718,145.0
51472.738,182.0
51484.341,148.0
51494.376,184.0
51504.423,150.0
51514.455,177.0
51522.623,179.0
51532.641,184.0
51542.664,159.0
51552.683,193.0
51562.701,200.0
51572.718,188.0
51582.735,190.0
51592.753,178.0
51603.331,177.0
51613.89,136.0
51623.908,198.0
51633.927,211.0
51643.946,196.0
51653.97,200.0
51663.991,197.0
51674.01,195.0
51684.03,175.0
51694.05,159.0
51704.07,180.0
51714.09,175.0
51724.301,146.0
51734.335,144.0
51744.355,154.0
51755.354,143.0
51763.544,149.0
51773.574,177.0
51783.593,200.0
51793.626,199.0
51803.645,198.0
51813.673,203.0
51823.702,203.0
51833.721,206.0
51843.749,203.0
51853.812,202.0
51863.833,208.0
51873.859,173.0
51883.884,201.0
51893.902,212.0
51903.925,192.0
51913.945,200.0
51923.967,198.0
51933.997,198.0
51944.016,195.0
51954.038,196.0
51964.057,179.0
51974.075,182.0
51984.096,182.0
51994.117,197.0
52004.154,177.0
52014.175,199.0
52024.21,202.0
52034.23,179.0
52044.26,195.0
52054.299,206.0
52064.335,163.0
52073.481,202.0
52083.518,199.0
52093.739,205.0
52103.758,184.0
52113.778,172.0
52123.804,177.0
52133.824,198.0
52143.843,195.0
52153.863,202.0
52163.884,207.0
52173.904,202.0
52183.925,161.0
52193.944,201.0
52204.409,197.0
52214.432,202.0
52224.452,187.0
52232.622,182.0
52244.106,164.0
52254.124,187.0
52264.147,190.0
52274.166,190.0
52284.185,153.0
52294.206,187.0
52304.224,187.0
52314.242,227.0
52324.263,208.0
52334.28,206.0
52344.772,182.0
52352.618,202.0
52363.546,202.0
52373.565,211.0
52383.584,194.0
52393.605,211.0
52403.625,178.0
52413.648,203.0
52423.668,202.0
52433.686,192.0
52443.806,192.0
52453.829,176.0
52464.308,174.0
52474.332,184.0
52484.351,160.0
52492.622,198.0
52502.646,201.0
52512.675,201.0
52522.695,205.0
52532.722,201.0
52542.742,197.0
52552.768,203.0
52563.568,177.0
52573.595,183.0
52584.376,183.0
52592.827,182.0
52603.371,179.0
52613.39,206.0
52623.41,201.0
52633.43,203.0
52643.447,203.0
52653.467,207.0
52663.487,191.0
52673.506,178.0
52683.607,197.0
52694.788,179.0
52704.81,187.0
52714.843,200.0
52722.623,174.0
52732.643,198.0
52742.696,200.0
52752.716,180.0
52762.736,203.0
52772.755,200.0
52782.777,202.0
52792.803,200.0
52804.056,203.0
52814.078,172.0
52824.098,180.0
52834.118,182.0
52844.139,197.0
52854.159,178.0
52864.187,211.0
52874.28,198.0
52884.3,179.0
52894.331,210.0
52904.35,204.0
52914.385,177.0
52924.414,204.0
52934.441,203.0
52944.466,200.0
52954.508,209.0
52962.654,184.0
52972.677,198.0
52982.71,196.0
52992.734,198.0
53002.75,197.0
53012.773,200.0
53022.791,178.0
53032.809,198.0
53043.37,205.0
53053.694,206.0
53063.72,183.0
53073.926,188.0
53083.944,206.0
53093.968,212.0
53103.995,213.0
53114.018,212.0
53124.036,199.0
53134.057,200.0
53144.075,202.0
53154.095,206.0
53164.181,183.0
53174.272,178.0
53184.289,177.0
53194.308,182.0
53204.407,175.0
53212.631,200.0
53222.649,199.0
53232.668,192.0
53242.688,202.0
53252.705,204.0
53262.723,178.0
53272.744,196.0
53283.648,208.0
53293.794,197.0
53304.326,202.0
53314.344,184.0
53324.362,180.0
53332.622,210.0
53342.646,169.0
53352.664,198.0
53362.688,194.0
53372.706,187.0
53382.73,184.0
53392.746,209.0
53403.068,179.0
53413.088,203.0
53423.525,180.0
53432.604,192.0
53444.929,198.0
53452.648,205.0
53462.668,210.0
53472.696,196.0
53482.721,176.0
53492.742,202.0
53502.761,202.0
53512.78,216.0
53524.289,181.0
53534.311,179.0
53544.377,200.0
53554.397,211.0
53564.425,175.0
53572.576,158.0
53582.606,202.0
53592.632,202.0
53602.649,179.0
53612.671,207.0
53622.691,206.0
53632.71,196.0
53643.938,196.0
53653.956,179.0
53664.036,172.0
53674.061,183.0
53684.081,183.0
53694.1,187.0
53704.124,178.0
53714.143,172.0
53724.166,196.0
53734.185,187.0
53744.208,197.0
53754.226,195.0
53764.364,182.0
53774.401,208.0
53784.906,173.0
53794.939,200.0
53804.988,196.0
53815.019,197.0
53822.603,197.0
53832.63,171.0
53842.647,184.0
53852.664,193.0
53862.685,192.0
53872.705,193.0
53883.602,186.0
53893.954,203.0
53904.553,192.0
53914.588,145.0
53922.653,198.0
53932.674,165.0
53942.707,201.0
53952.728,181.0
53962.743,203.0
53972.76,202.0
53982.779,179.0
53992.795,202.0
54003.556,198.0
54013.579,203.0
54024.239,175.0
54034.27,174.0
54044.288,166.0
54054.305,200.0
54064.336,208.0
54074.353,188.0
54082.627,186.0
54092.644,201.0
54102.661,197.0
54112.68,178.0
54123.121,178.0
54136.578,179.0
54144.561,181.0
54152.543,184.0
54163.74,198.0
54173.771,200.0
54183.799,201.0
54193.819,198.0
54203.837,182.0
54213.856,198.0
54223.878,182.0
54233.897,182.0
54243.993,156.0
54254.048,149.0
54264.065,179.0
54274.093,179.0
54284.111,138.0
54294.135,138.0
54304.158,180.0
54314.176,181.0
54324.194,181.0
54334.216,187.0
54344.238,180.0
54354.257,141.0
54364.32,145.0
54374.341,188.0
54384.357,179.0
54394.394,143.0
54404.428,171.0
54414.46,177.0
54424.496,194.0
54432.632,142.0
54442.649,140.0
54452.666,152.0
54462.692,155.0
54472.711,200.0
54484.039,148.0
54494.108,151.0
54504.136,153.0
54514.155,138.0
54524.209,140.0
54534.227,177.0
54544.258,192.0
54554.278,198.0
54564.314,199.0
54574.336,180.0
54584.365,195.0
54592.633,200.0
54603.37,200.0
54613.39,194.0
54623.89,185.0
54633.964,200.0
54643.985,195.0
54654.004,182.0
54664.032,189.0
54674.065,169.0
54684.084,198.0
54694.104,202.0
54704.122,216.0
54714.14,201.0
54724.166,179.0
54734.187,185.0
54744.223,146.0
54754.241,171.0
54764.262,156.0
54772.501,169.0
54782.527,160.0
54792.554,151.0
54803.461,167.0
54813.478,178.0
54823.497,145.0
54833.516,141.0
54844.378,145.0
54854.441,146.0
54864.459,155.0
54874.488,156.0
54884.508,145.0
54894.539,151.0
54904.573,147.0
54914.601,150.0
54922.631,154.0
54932.757,153.0
54943.375,176.0
54953.394,170.0
54963.705,151.0
54973.722,156.0
54983.743,151.0
54993.761,159.0
55004.563,118.0
55014.592,141.0
55024.628,137.0
55034.661,174.0
55042.638,165.0
55052.666,174.0
55062.683,176.0
55073.516,171.0
55083.537,151.0
55093.561,166.0
55104.311,152.0
55114.341,144.0
55124.365,166.0
55132.637,149.0
55142.67,149.0
55152.691,154.0
55162.707,161.0
55172.727,156.0
55182.745,151.0
55192.762,167.0
55203.305,170.0
55213.335,154.0
55223.939,149.0
55233.968,169.0
55243.988,146.0
55254.006,158.0
55264.029,146.0
55274.048,156.0
55284.067,179.0
55294.086,152.0
55304.105,170.0
55314.124,148.0
55324.142,184.0
55334.162,145.0
55344.181,142.0
55354.214,154.0
55364.232,146.0
55374.253,151.0
55384.288,151.0
55392.634,166.0
55402.652,155.0
55412.67,146.0
55422.686,146.0
55432.701,144.0
55443.781,149.0
55453.802,154.0
55463.853,151.0
55473.877,164.0
55484.16,146.0
55494.179,147.0
55504.202,153.0
55514.222,162.0
55524.24,142.0
55534.258,172.0
55544.287,170.0
55552.637,169.0
55564.329,146.0
55574.347,169.0
55584.375,159.0
55593.827,171.0
55603.853,139.0
55613.873,166.0
55623.903,166.0
55633.925,163.0
55643.952,162.0
55653.972,175.0
55664.0,174.0
55674.023,159.0
55684.042,149.0
55694.06,157.0
55705.092,151.0
55712.822,170.0
55723.629,151.0
55733.648,150.0
55743.725,161.0
55753.745,165.0
55763.766,149.0
55773.788,168.0
55783.807,179.0
55793.827,172.0
55803.846,158.0
55813.864,149.0
55824.795,145.0
55834.824,156.0
55842.772,153.0
55852.787,168.0
55862.811,167.0
55872.828,183.0
55882.856,152.0
55892.874,189.0
55902.891,180.0
55912.914,182.0
55923.686,149.0
55933.703,159.0
55945.213,154.0
55955.238,173.0
55965.264,151.0
55975.291,149.0
55985.321,154.0
55995.348,148.0
56002.636,145.0
56012.652,151.0
56022.67,156.0
56032.691,153.0
56044.223,149.0
56054.243,163.0
56064.265,146.0
56074.284,148.0
56084.309,150.0
56094.329,149.0
56104.37,151.0
56114.402,155.0
56122.639,156.0
56132.663,154.0
56142.679,158.0
56152.708,161.0
56163.787,146.0
56173.813,157.0
56183.831,154.0
56193.867,154.0
56204.183,151.0
56214.21,167.0
56224.231,158.0
56234.257,161.0
56244.282,164.0
56254.31,147.0
56262.643,154.0
56272.67,149.0
56283.946,154.0
56293.972,168.0
56304.94,153.0
56315.094,159.0
56325.137,148.0
56332.697,159.0
56342.741,177.0
56352.765,165.0
56362.787,164.0
56372.816,174.0
56382.835,174.0
56392.858,180.0
56403.838,148.0
56413.868,156.0
56424.332,148.0
56432.733,154.0
56445.012,143.0
56452.775,153.0
56462.807,153.0
56472.83,162.0
56483.485,153.0
56493.511,156.0
56503.529,152.0
56513.55,151.0
56523.831,168.0
56533.848,149.0
56543.935,167.0
56553.968,164.0
56563.991,150.0
56574.008,174.0
56584.026,179.0
56594.044,152.0
56604.062,156.0
56614.09,154.0
56624.109,151.0
56634.155,167.0
56644.173,156.0
56654.19,185.0
56664.8,154.0
56676.205,185.0
56684.374,166.0
56692.653,157.0
56702.67,147.0
56712.697,152.0
56722.715,151.0
56732.742,145.0
56742.761,145.0
56752.788,144.0
56763.632,168.0
56773.658,145.0
56785.134,170.0
56792.783,143.0
56806.374,139.0
56812.821,154.0
56822.838,153.0
56832.857,166.0
56842.881,149.0
56856.52,149.0
56862.919,154.0
56872.94,160.0
56883.556,143.0
56893.576,149.0
56905.782,152.0
56912.739,151.0
56923.38,150.0
56933.405,149.0
56943.431,151.0
56953.459,150.0
56963.484,153.0
56973.507,154.0
56983.531,145.0
56993.554,117.0
57003.732,107.0
57013.751,121.0
57023.802,138.0
57033.822,107.0
57044.146,105.0
57054.166,115.0
57064.19,119.0
57074.205,130.0
57084.226,141.0
57094.26,136.0
57104.289,120.0
57112.658,136.0
57123.475,105.0
57133.493,124.0
57144.193,107.0
57154.221,109.0
57164.237,143.0
57174.271,141.0
57184.304,135.0
57192.66,114.0
57202.675,111.0
57212.692,106.0
57222.742,115.0
57232.758,102.0
57243.765,146.0
57253.784,136.0
57263.801,110.0
57273.821,105.0
57283.843,138.0
57293.861,139.0
57303.881,133.0
57313.9,129.0
57323.921,137.0
57333.941,112.0
57343.959,120.0
57353.977,123.0
57364.0,105.0
57374.025,115.0
57384.046,166.0
57394.067,127.0
57404.087,134.0
57414.112,156.0
57424.134,115.0
57434.157,119.0
57444.176,105.0
57454.196,115.0
57464.216,119.0
57474.354,106.0
57484.401,127.0
57493.167,114.0
57503.721,107.0
57513.747,114.0
57523.767,140.0
57533.79,160.0
57543.808,117.0
57553.833,125.0
57563.851,125.0
57573.875,116.0
57583.896,114.0
57593.92,123.0
57603.94,88.0
57613.965,105.0
57624.125,123.0
57634.148,115.0
57644.167,130.0
57654.187,137.0
57664.213,141.0
57674.23,137.0
57684.252,140.0
57692.474,130.0
57702.667,144.0
57712.682,118.0
57724.275,116.0
57734.33,114.0
57744.356,109.0
57754.385,115.0
57762.667,142.0
57772.686,162.0
57782.71,117.0
57792.725,117.0
57802.742,139.0
57812.758,112.0
57822.775,139.0
57832.79,109.0
57843.92,112.0
57853.94,105.0
57864.668,90.0
57874.695,104.0
57884.876,115.0
57894.901,158.0
57904.937,114.0
57914.968,154.0
57922.673,117.0
57932.695,113.0
57942.714,117.0
57952.736,110.0
57964.347,117.0
57974.379,140.0
57984.401,118.0
57994.434,121.0
58004.458,124.0
58012.578,120.0
58022.609,115.0
58032.674,122.0
58042.693,115.0
58052.711,117.0
58062.729,116.0
58072.747,106.0
58083.174,115.0
58093.199,135.0
58104.148,139.0
58114.178,117.0
58124.199,122.0
58132.418,128.0
58142.476,133.0
58152.799,132.0
58162.852,117.0
58172.87,143.0
58182.888,148.0
58192.909,138.0
58202.932,138.0
58212.95,134.0
58223.511,112.0
58233.536,125.0
58243.555,142.0
58253.576,145.0
58263.597,129.0
58273.619,139.0
58283.642,134.0
58293.667,139.0
58303.698,138.0
58313.717,140.0
58324.536,134.0
58334.561,128.0
58344.585,107.0
58352.677,113.0
58363.397,127.0
58373.415,116.0
58383.433,139.0
58393.45,116.0
58403.471,107.0
58413.489,124.0
58423.517,132.0
58433.541,112.0
58444.218,115.0
58454.244,135.0
58464.268,129.0
58474.554,109.0
58484.577,158.0
58492.676,117.0
58502.755,146.0
58513.543,143.0
58523.572,126.0
58533.772,128.0
58543.79,127.0
58553.809,128.0
58563.938,133.0
58574.035,125.0
58586.259,117.0
58592.751,120.0
58604.045,161.0
58614.068,117.0
58624.088,125.0
58634.107,117.0
58642.628,128.0
58653.024,141.0
58663.042,123.0
58673.063,104.0
58684.138,109.0
58694.159,130.0
58704.297,112.0
58714.321,144.0
58724.348,145.0
58732.69,146.0
58742.715,141.0
58752.732,131.0
58762.751,145.0
58772.773,152.0
58782.794,148.0
58792.815,143.0
58803.616,109.0
58813.634,136.0
58824.531,114.0
58834.562,115.0
58844.581,146.0
58852.674,129.0
58862.693,143.0
58872.72,132.0
58882.74,114.0
58892.76,134.0
58902.776,145.0
58912.797,117.0
58923.628,116.0
58933.646,146.0
58943.987,112.0
58954.012,102.0
58964.031,123.0
58974.053,112.0
58984.079,128.0
58994.098,126.0
59004.116,110.0
59014.136,117.0
59024.155,151.0
59034.173,133.0
59044.196,125.0
59054.232,173.0
59064.298,105.0
59074.743,140.0
59084.764,184.0
59092.675,148.0
59102.692,120.0
59112.71,119.0
59122.733,118.0
59132.751,136.0
59142.77,131.0
59152.913,117.0
59164.144,115.0
59174.167,109.0
59185.204,110.0
59192.789,123.0
59202.856,109.0
59213.837,110.0
59223.856,124.0
59233.878,132.0
59243.895,125.0
59253.916,132.0
59263.935,125.0
59273.954,109.0
59284.281,148.0
59294.3,104.0
59304.833,145.0
59313.196,118.0
59324.177,118.0
59334.197,125.0
59344.22,110.0
59354.242,118.0
59364.261,149.0
59374.28,171.0
59384.3,144.0
59394.32,177.0
59404.337,144.0
59414.357,174.0
59424.866,147.0
59435.073,166.0
59442.779,148.0
59452.801,157.0
59462.824,141.0
59472.84,154.0
59482.858,140.0
59492.879,144.0
59502.894,166.0
59512.912,173.0
59523.736,171.0
59533.755,143.0
59544.126,147.0
59554.144,155.0
59564.165,170.0
59574.183,142.0
59584.206,155.0
59594.258,177.0
59604.276,161.0
59614.296,158.0
59624.319,142.0
59634.337,141.0
59644.369,149.0
59654.387,169.0
59664.428,172.0
59674.447,164.0
59684.473,146.0
59692.773,158.0
59702.791,145.0
59712.808,141.0
59722.83,177.0
59732.846,145.0
59742.864,155.0
59752.883,149.0
59764.053,169.0
59774.085,145.0
59784.146,167.0
59794.166,152.0
59804.183,163.0
59814.203,161.0
59824.221,147.0
59834.242,182.0
59844.26,154.0
59854.28,175.0
59864.3,164.0
59874.323,174.0
59884.501,148.0
59894.522,148.0
59902.673,147.0
59914.556,161.0
59924.581,139.0
59934.615,161.0
59944.638,169.0
59952.681,174.0
59962.697,162.0
59972.714,142.0
59982.734,156.0
59992.749,156.0
60004.11,185.0
60014.129,148.0
60025.206,169.0
60035.223,151.0
60042.688,151.0
60054.688,152.0
60064.724,176.0
60072.686,187.0
60082.72,159.0
60092.742,200.0
60102.761,188.0
60112.781,195.0
60124.185,187.0
60134.204,190.0
60144.221,190.0
60154.408,192.0
60164.439,192.0
60174.459,200.0
60184.492,190.0
60192.681,197.0
60202.698,189.0
60212.716,188.0
60223.526,184.0
60233.543,189.0
60244.807,180.0
60254.825,183.0
60264.582,190.0
60274.602,182.0
60284.849,184.0
60292.682,159.0
60302.705,185.0
60312.722,185.0
60322.74,177.0
60332.76,192.0
60342.777,184.0
60352.794,193.0
60363.608,190.0
60373.63,185.0
60386.814,178.0
60393.849,165.0
60404.917,192.0
60414.945,191.0
60424.98,198.0
60432.683,196.0
60442.709,195.0
60452.726,192.0
60462.746,197.0
60472.766,191.0
60482.784,183.0
60492.801,196.0
60503.365,184.0
60513.38,189.0
60523.554,182.0
60533.585,194.0
60543.615,193.0
60553.632,190.0
60563.65,192.0
60573.668,198.0
60583.688,200.0
60593.707,189.0
60603.885,186.0
60613.903,187.0
60626.887,188.0
60633.943,192.0
60643.963,193.0
60654.398,192.0
60664.42,198.0
60672.688,204.0
60682.707,192.0
60692.726,196.0
60702.743,197.0
60713.486,192.0
60723.508,193.0
60733.527,202.0
60744.822,191.0
60752.725,193.0
60763.024,158.0
60773.041,201.0
60783.061,186.0
60793.082,186.0
60803.1,192.0
60813.119,188.0
60823.136,193.0
60833.154,202.0
60844.305,180.0
60854.407,164.0
60864.431,188.0
60874.485,148.0
60885.749,180.0
60893.726,181.0
60903.745,181.0
60913.763,184.0
60923.78,184.0
60933.798,189.0
60943.816,190.0
60953.835,193.0
60963.853,187.0
60973.874,198.0
60983.9,183.0
60993.918,192.0
61004.263,188.0
61014.284,192.0
61024.312,194.0
61034.331,201.0
61044.354,191.0
61054.375,197.0
61064.393,189.0
61074.41,203.0
61084.485,198.0
61094.506,192.0
61105.032,197.0
61115.056,177.0
61125.085,193.0
61135.106,194.0
61145.151,180.0
61152.688,186.0
61162.707,187.0
61172.727,192.0
61182.744,170.0
61192.761,181.0
61203.907,176.0
61213.935,193.0
61225.025,190.0
61232.686,189.0
61243.325,182.0
61253.342,202.0
61263.36,188.0
61273.378,184.0
61283.395,190.0
61293.415,198.0
61303.434,177.0
61313.452,188.0
61324.446,203.0
61334.466,176.0
61343.424,197.0
61354.631,188.0
61364.67,194.0
61374.691,187.0
61384.724,180.0
61394.756,197.0
61402.71,190.0
61412.877,187.0
61422.894,185.0
61432.911,211.0
61444.154,201.0
61454.176,211.0
61465.179,196.0
61472.758,182.0
61482.782,200.0
61494.088,203.0
61504.114,201.0
61514.132,205.0
61524.152,190.0
61534.171,195.0
61544.191,180.0
61554.21,203.0
61564.552,195.0
61574.572,202.0
61585.656,206.0
61592.715,192.0
61606.404,203.0
61614.575,198.0
61624.61,195.0
61634.645,195.0
61642.689,204.0
61653.504,200.0
61663.524,202.0
61673.541,203.0
61683.563,180.0
61693.584,189.0
61705.567,206.0
61715.584,196.0
61725.608,202.0
61732.722,213.0
61742.75,197.0
61752.773,198.0
61762.79,203.0
61772.807,194.0
61782.832,197.0
61792.848,193.0
61803.965,195.0
61813.982,178.0
61826.098,191.0
61832.741,183.0
61846.412,181.0
61854.369,185.0
61864.395,188.0
61874.414,183.0
61884.433,191.0
61892.696,195.0
61902.724,190.0
61912.743,186.0
61924.133,187.0
61934.155,188.0
61944.326,148.0
61954.344,182.0
61964.365,175.0
61974.625,180.0
61984.66,183.0
61992.702,190.0
62002.719,176.0
62012.737,180.0
62022.761,184.0
62032.778,179.0
62046.577,177.0
62052.812,182.0
62065.823,193.0
62072.792,179.0
62086.474,181.0
62093.961,194.0
62103.981,184.0
62114.006,178.0
62124.026,197.0
62134.044,195.0
62144.064,199.0
62154.187,190.0
62164.207,185.0
62174.228,179.0
62185.242,187.0
62195.26,188.0
62205.288,179.0
62212.837,190.0
62222.853,186.0
62232.871,184.0
62242.888,179.0
62252.905,188.0
62262.923,177.0
62272.941,184.0
62283.597,177.0
62293.984,178.0
62304.504,177.0
62313.524,195.0
62323.544,179.0
62333.56,185.0
62343.579,185.0
62353.598,181.0
62363.617,177.0
62373.638,195.0
62383.657,173.0
62393.675,176.0
62404.079,175.0
62414.1,179.0
62424.149,177.0
62434.168,185.0
62444.192,184.0
62454.211,178.0
62464.236,187.0
62474.256,175.0
62484.278,174.0
62494.311,188.0
62504.331,197.0
62514.352,174.0
62524.369,184.0
62534.394,179.0
62544.415,180.0
62554.435,187.0
62566.997,185.0
62573.277,184.0
62583.296,192.0
62593.317,179.0
62603.335,188.0
62613.356,190.0
62623.375,189.0
62633.588,177.0
62644.087,177.0
62654.104,167.0
62664.123,159.0
62674.143,140.0
62684.163,135.0
62694.184,143.0
62704.206,170.0
62714.223,149.0
62722.617,163.0
62732.697,146.0
62742.714,147.0
62752.735,166.0
62763.634,144.0
62773.654,149.0
62783.701,174.0
62792.885,146.0
62803.946,149.0
62813.964,145.0
62823.989,151.0
62834.006,148.0
62844.027,158.0
62854.048,150.0
62864.069,140.0
62874.09,149.0
62884.11,155.0
62894.198,171.0
62905.534,167.0
62913.552,146.0
62923.874,148.0
62933.893,166.0
62943.914,141.0
62953.934,141.0
62963.954,143.0
62973.975,197.0
62983.993,199.0
62994.018,156.0
63004.041,148.0
63014.121,181.0
63024.247,146.0
63034.27,143.0
63044.292,167.0
63054.327,149.0
63064.356,152.0
63074.374,143.0
63084.394,145.0
63094.415,140.0
63102.772,164.0
63112.793,184.0
63124.563,166.0
63134.585,166.0
63145.854,138.0
63152.769,141.0
63166.485,153.0
63173.555,145.0
63183.576,176.0
63193.595,170.0
63203.617,176.0
63213.637,186.0
63223.655,180.0
63233.673,189.0
63244.243,145.0
63254.264,175.0
63264.3,163.0
63274.342,147.0
63284.366,178.0
63294.399,183.0
63304.429,182.0
63312.706,187.0
63322.723,174.0
63332.79,189.0
63342.808,195.0
63352.843,180.0
63364.068,124.0
63374.085,127.0
63384.102,140.0
63394.124,149.0
63404.253,140.0
63414.376,157.0
63424.469,187.0
63433.579,187.0
63443.598,185.0
63453.616,188.0
63463.634,194.0
63473.652,185.0
63484.431,175.0
63494.45,182.0
63504.692,179.0
63514.716,185.0
63526.29,180.0
63534.978,186.0
63545.011,188.0
63552.716,182.0
63562.734,196.0
63572.75,167.0
63582.769,184.0
63592.785,193.0
63603.77,174.0
63613.789,183.0
63624.186,179.0
63634.207,198.0
63644.228,182.0
63654.245,195.0
63664.269,194.0
63674.288,181.0
63684.306,194.0
63694.327,189.0
63704.349,192.0
63714.37,193.0
63724.393,193.0
63734.411,187.0
63744.431,180.0
63754.449,179.0
63764.488,180.0
63774.509,178.0
63784.543,178.0
63794.574,180.0
63802.716,177.0
63812.735,184.0
63822.753,182.0
63832.768,180.0
63843.883,199.0
63853.9,180.0
63864.736,184.0
63872.714,163.0
63886.567,143.0
63892.746,151.0
63902.765,178.0
63912.782,169.0
63922.805,159.0
63932.823,161.0
63942.84,185.0
63952.858,162.0
63963.653,161.0
63973.672,118.0
63984.224,171.0
63994.247,155.0
64004.266,147.0
64014.283,159.0
64024.307,157.0
64034.327,150.0
64044.344,161.0
64054.364,148.0
64062.713,178.0
64072.731,163.0
64083.594,151.0
64093.62,169.0
64104.422,143.0
64116.598,149.0
64123.698,158.0
64133.717,161.0
64143.736,182.0
64153.776,157.0
64163.794,158.0
64173.814,164.0
64183.834,153.0
64193.945,157.0
64204.581,158.0
64214.606,167.0
64224.193,152.0
64234.24,167.0
64244.27,158.0
64254.289,163.0
64264.312,164.0
64272.038,165.0
64282.712,161.0
64292.73,158.0
64302.747,186.0
64312.763,158.0
64324.157,158.0
64334.179,159.0
64344.554,157.0
64354.579,157.0
64364.598,161.0
64372.711,173.0
64382.735,151.0
64392.754,155.0
64402.774,166.0
64412.793,163.0
64422.813,158.0
64432.831,155.0
64443.544,158.0
64453.567,185.0
64463.867,166.0
64473.889,177.0
64484.71,142.0
64492.717,159.0
64502.75,175.0
64512.767,162.0
64522.785,171.0
64532.804,177.0
64542.823,172.0
64552.841,158.0
64563.713,166.0
64573.733,172.0
64584.405,158.0
64594.422,171.0
64604.722,182.0
64612.762,190.0
64622.782,182.0
64632.801,180.0
64642.819,175.0
64652.839,169.0
64662.858,179.0
64672.88,181.0
64683.779,174.0
64693.84,177.0
64704.043,149.0
64714.069,180.0
64724.339,162.0
64734.358,163.0
64744.382,177.0
64752.719,158.0
64762.739,181.0
64772.758,200.0
64782.776,192.0
64792.81,196.0
64803.953,196.0
64813.984,199.0
64824.055,203.0
64834.076,187.0
64844.115,206.0
64854.14,208.0
64864.166,203.0
64874.185,200.0
64884.206,205.0
64894.227,207.0
64904.246,206.0
64914.269,202.0
64924.304,198.0
64934.324,180.0
64944.35,195.0
64954.371,200.0
64964.393,200.0
64972.727,196.0
64982.759,199.0
64992.776,206.0
65002.793,197.0
65012.811,200.0
65022.827,200.0
65032.86,202.0
65043.503,192.0
65053.522,189.0
65063.536,204.0
65073.555,208.0
65083.929,230.0
65093.953,202.0
65104.001,203.0
65114.022,202.0
65124.041,200.0
65134.061,195.0
65144.085,198.0
65154.104,212.0
65164.116,201.0
65174.135,194.0
65184.211,200.0
65192.632,165.0
65205.23,205.0
65212.724,191.0
65222.746,212.0
65232.763,220.0
65242.78,215.0
65252.797,226.0
65262.813,228.0
65272.832,227.0
65284.299,209.0
65294.321,216.0
65304.342,209.0
65314.405,206.0
65324.425,213.0
65334.443,219.0
65344.47,220.0
65352.734,214.0
65362.753,218.0
65372.771,218.0
65382.793,207.0
65392.812,206.0
65404.082,208.0
65414.101,221.0
65424.165,212.0
65434.185,202.0
65444.205,220.0
65454.225,210.0
65464.248,219.0
65474.272,210.0
65484.294,207.0
65494.318,218.0
65504.34,210.0
65514.358,206.0
65524.39,202.0
65534.409,219.0
65544.721,208.0
65552.734,208.0
65566.602,214.0
65572.772,224.0
65582.798,205.0
65592.819,215.0
65602.84,205.0
65612.86,212.0
65622.878,225.0
65632.899,222.0
65644.9,223.0
65654.972,211.0
65665.645,213.0
65672.787,188.0
65683.51,198.0
65693.529,205.0
65703.548,208.0
65713.567,215.0
65723.686,208.0
65733.705,218.0
65743.723,213.0
65753.745,209.0
65763.857,211.0
65773.889,216.0
65783.925,199.0
65793.95,202.0
65803.968,190.0
65813.987,197.0
65824.01,189.0
65834.03,195.0
65844.049,192.0
65854.071,192.0
65864.09,205.0
65874.234,199.0
65884.261,187.0
65894.284,193.0
65904.307,186.0
65914.331,192.0
65922.81,186.0
65932.829,193.0
65942.85,192.0
65952.872,189.0
65962.894,195.0
65973.612,196.0
65983.632,198.0
65993.652,196.0
66004.394,189.0
66014.415,186.0
66024.435,187.0
66035.092,192.0
66043.56,186.0
66053.586,190.0
66063.604,191.0
66073.625,191.0
66083.645,190.0
66093.663,188.0
66103.683,182.0
66113.702,190.0
66123.721,195.0
66133.844,188.0
66144.008,193.0
66154.033,190.0
66164.05,189.0
66174.073,185.0
66184.095,144.0
66194.113,144.0
66204.133,136.0
66214.151,151.0
66224.171,143.0
66234.191,163.0
66244.21,148.0
66254.231,155.0
66264.404,166.0
66274.44,139.0
66282.911,141.0
66292.93,141.0
66302.948,140.0
66312.971,143.0
66322.993,149.0
66333.012,143.0
66343.03,151.0
66353.049,142.0
66364.516,187.0
66374.586,181.0
66384.607,185.0
66392.735,198.0
66404.146,186.0
66414.168,198.0
66424.195,192.0
66434.214,195.0
66444.232,194.0
66454.251,202.0
66464.322,197.0
66474.345,202.0
66484.37,195.0
66494.391,195.0
66504.416,188.0
66514.752,223.0
66522.755,197.0
66532.776,205.0
66542.795,199.0
66552.809,198.0
66562.826,190.0
66572.843,192.0
66582.904,195.0
66592.927,204.0
66604.055,204.0
66614.075,216.0
66624.088,167.0
66634.112,188.0
66644.133,192.0
66654.158,191.0
66664.181,193.0
66674.203,193.0
66684.23,205.0
66694.249,199.0
66704.27,195.0
66714.306,206.0
66724.322,195.0
66734.369,184.0
66744.4,182.0
66754.421,190.0
66764.452,206.0
66774.473,195.0
66784.502,195.0
66794.534,197.0
66802.74,189.0
66812.765,206.0
66822.783,194.0
66832.801,210.0
66843.901,205.0
66853.918,215.0
66864.033,212.0
66874.052,187.0
66884.077,201.0
66894.097,195.0
66904.157,207.0
66914.177,208.0
66924.197,205.0
66934.255,202.0
66944.276,200.0
66954.295,218.0
66964.321,203.0
66974.342,188.0
66984.365,184.0
66994.396,182.0
67004.42,201.0
67014.46,204.0
67024.485,199.0
67032.749,196.0
67042.769,202.0
67052.788,208.0
67062.805,199.0
67072.827,195.0
67083.961,205.0
67093.989,206.0
67104.124,204.0
67114.148,199.0
67124.168,206.0
67134.188,210.0
67144.21,208.0
67154.23,217.0
67164.249,229.0
67174.272,223.0
67184.291,203.0
67194.31,201.0
67204.332,208.0
67214.385,221.0
67224.404,204.0
67234.434,203.0
67244.471,199.0
67254.493,205.0
67264.527,212.0
67272.747,223.0
67282.768,219.0
67292.788,221.0
67302.807,209.0
67312.824,224.0
67323.501,210.0
67334.262,205.0
67344.293,211.0
67354.317,197.0
67364.351,202.0
67374.372,210.0
67384.414,202.0
67394.435,204.0
67404.465,206.0
67414.489,214.0
67424.525,211.0
67432.752,202.0
67446.524,203.0
67453.347,201.0
67463.92,206.0
67473.94,202.0
67483.96,211.0
67493.979,214.0
67504.002,203.0
67514.021,200.0
67524.04,203.0
67534.06,197.0
67544.078,210.0
67554.097,203.0
67564.117,202.0
67575.251,205.0
67582.827,212.0
67592.999,206.0
67603.028,210.0
67613.045,205.0
67623.075,198.0
67633.091,207.0
67643.121,206.0
67653.139,190.0
67663.167,190.0
67673.191,200.0
67683.982,192.0
67694.034,183.0
67704.06,145.0
67714.115,144.0
67724.135,138.0
67734.153,141.0
67744.175,141.0
67754.196,145.0
67764.214,145.0
67774.232,146.0
67784.254,143.0
67794.273,145.0
67804.291,143.0
67814.314,135.0
67824.405,138.0
67834.44,140.0
67842.605,146.0
67852.633,144.0
67862.661,146.0
67872.685,166.0
67882.749,152.0
67892.769,140.0
67902.788,161.0
67912.806,143.0
67924.116,144.0
67934.14,143.0
67944.298,143.0
67954.396,150.0
67964.419,178.0
67974.438,149.0
67984.472,160.0
67994.499,142.0
68002.75,169.0
68012.776,140.0
68022.794,147.0
68032.821,146.0
68044.002,149.0
68054.037,140.0
68064.648,143.0
68074.679,153.0
68084.702,169.0
68094.731,137.0
68104.772,138.0
68112.753,140.0
68122.771,142.0
68132.796,139.0
68142.814,148.0
68152.83,174.0
68164.031,148.0
68174.055,136.0
68184.073,138.0
68194.105,154.0
68204.124,166.0
68214.15,169.0
68224.174,174.0
68234.201,160.0
68244.22,149.0
68254.246,144.0
68264.264,135.0
68274.646,169.0
68284.68,136.0
68292.755,141.0
68304.85,143.0
68312.973,177.0
68322.994,151.0
68333.02,159.0
68343.06,163.0
68353.082,143.0
68363.101,151.0
68373.12,145.0
68383.138,148.0
68393.156,144.0
68403.933,145.0
68413.951,148.0
68424.16,192.0
68434.191,167.0
68444.63,136.0
68452.755,145.0
68462.778,140.0
68472.804,153.0
68482.823,167.0
68496.555,150.0
68502.993,158.0
68513.016,153.0
68524.73,141.0
68532.763,166.0
68543.859,137.0
68553.88,168.0
68564.444,172.0
68572.78,144.0
68582.807,141.0
68592.833,153.0
68602.85,143.0
68612.876,163.0
68622.894,161.0
68632.917,172.0
68643.887,142.0
68653.91,153.0
68664.457,142.0
68674.487,141.0
68683.208,156.0
68693.228,149.0
68703.248,171.0
68713.264,175.0
68723.281,180.0
68733.298,185.0
68743.314,182.0
68753.33,185.0
68763.781,182.0
68774.948,180.0
68785.032,179.0
68792.961,184.0
68802.991,179.0
68813.008,185.0
68823.027,183.0
68833.045,182.0
68843.068,184.0
68853.086,189.0
68863.106,179.0
68873.122,187.0
68883.704,192.0
68893.818,180.0
68903.842,156.0
68913.991,182.0
68924.017,146.0
68934.036,188.0
68944.066,160.0
68954.119,180.0
68964.232,189.0
68974.252,180.0
68984.279,179.0
68994.297,182.0
69004.315,145.0
69014.36,182.0
69024.38,141.0
69034.4,164.0
69044.419,176.0
69054.439,184.0
69064.471,150.0
69072.759,182.0
69082.967,181.0
69092.985,182.0
69103.002,176.0
69113.023,182.0
69123.839,200.0
69134.09,210.0
69144.11,161.0
69154.136,166.0
69164.373,177.0
69174.395,185.0
69184.418,142.0
69194.437,177.0
69202.77,185.0
69212.787,185.0
69222.815,181.0
69232.832,187.0
69246.741,145.0
69252.89,98.0
69263.669,126.0
69273.692,110.0
69283.714,167.0
69293.732,169.0
69303.757,172.0
69313.776,112.0
69323.796,151.0
69333.817,148.0
69343.837,145.0
69353.855,174.0
69364.541,112.0
69374.566,153.0
69384.585,163.0
69394.604,155.0
69402.764,149.0
69412.783,156.0
69422.802,147.0
69432.822,180.0
69442.843,148.0
69452.862,105.0
69462.883,148.0
69473.533,153.0
69484.438,102.0
69494.496,107.0
69504.522,156.0
69514.544,149.0
69522.764,152.0
69532.782,155.0
69542.799,149.0
69552.815,105.0
69562.831,151.0
69572.847,144.0
69582.866,125.0
69592.905,150.0
69603.945,147.0
69614.008,145.0
69624.087,129.0
69634.106,178.0
69644.126,146.0
69654.145,158.0
69664.166,119.0
69674.187,147.0
69684.205,151.0
69694.226,148.0
69704.245,164.0
69714.264,166.0
69724.286,149.0
69734.313,101.0
69744.332,136.0
69754.354,122.0
69764.374,139.0
69774.403,99.0
69784.489,123.0
69792.779,154.0
69802.798,154.0
69812.815,148.0
69822.837,156.0
69832.865,156.0
69843.896,156.0
69853.955,154.0
69864.128,151.0
69874.147,169.0
69884.169,151.0
69894.188,173.0
69904.214,172.0
69914.235,172.0
69924.254,151.0
69934.281,169.0
69944.302,170.0
69954.322,174.0
69964.343,153.0
69974.403,149.0
69984.423,173.0
69996.485,148.0
70002.785,108.0
70012.801,142.0
70022.816,144.0
70032.835,147.0
70042.857,177.0
70052.877,147.0
70062.896,146.0
70072.927,149.0
70084.347,92.0
70094.365,150.0
70104.421,157.0
70114.438,146.0
70122.777,146.0
70132.795,150.0
70142.816,145.0
70152.833,148.0
70162.861,145.0
70172.881,146.0
70182.903,149.0
70192.924,151.0
70203.752,102.0
70213.776,151.0
70223.875,166.0
70233.896,125.0
70243.919,106.0
70253.941,156.0
70263.966,144.0
70273.986,153.0
70284.003,149.0
70294.021,143.0
70304.039,148.0
70314.058,109.0
70324.076,173.0
70334.096,148.0
70344.118,154.0
70354.138,149.0
70364.157,167.0
70374.178,176.0
70384.201,125.0
70394.221,160.0
70404.242,159.0
70414.26,109.0
70424.28,139.0
70434.299,182.0
70444.322,150.0
70454.342,99.0
70464.361,147.0
70474.381,159.0
70484.4,150.0
70492.777,154.0
70502.805,151.0
70512.823,151.0
70522.849,153.0
70532.869,162.0
70542.894,148.0
70552.912,153.0
70566.688,149.0
70574.392,99.0
70584.427,102.0
70594.447,148.0
70602.787,147.0
70612.805,108.0
70622.823,136.0
70632.843,117.0
70642.863,149.0
70652.885,151.0
70662.904,173.0
70672.924,155.0
70684.131,115.0
70694.15,167.0
70704.323,185.0
70714.342,182.0
70724.363,189.0
70734.381,108.0
70744.405,186.0
70752.784,175.0
70762.812,150.0
70772.831,84.0
70782.849,138.0
70792.871,153.0
70803.589,133.0
70816.714,138.0
70825.238,141.0
70835.268,157.0
70843.327,172.0
70853.345,179.0
70863.364,135.0
70873.38,179.0
70883.641,151.0
70893.659,106.0
70903.677,153.0
70913.699,185.0
70924.15,150.0
70934.171,183.0
70944.984,187.0
70955.004,105.0
70965.025,177.0
70972.808,185.0
70982.836,185.0
70992.854,182.0
71002.88,169.0
71012.897,136.0
71022.923,202.0
71032.94,182.0
71042.96,149.0
71054.935,149.0
71062.891,107.0
71074.989,141.0
71082.928,190.0
71092.944,149.0
71102.965,143.0
71112.982,176.0
71123.007,184.0
71133.029,181.0
71143.049,146.0
71153.065,183.0
71164.081,182.0
71174.097,111.0
71184.115,149.0
71194.133,164.0
71204.151,164.0
71214.169,180.0
71224.191,180.0
71234.21,161.0
71244.229,188.0
71254.254,182.0
71264.275,187.0
71274.296,148.0
71284.398,133.0
71294.434,180.0
71304.461,182.0
71314.478,188.0
71322.795,184.0
71332.812,184.0
71342.829,184.0
71352.844,157.0
71362.864,173.0
71372.882,190.0
71382.903,187.0
71392.923,192.0
71403.984,141.0
71414.007,179.0
71425.679,181.0
71435.729,146.0
71445.762,182.0
71455.792,146.0
71462.803,187.0
71472.825,170.0
71482.843,170.0
71492.861,179.0
71502.882,182.0
71512.902,165.0
71523.965,136.0
71533.982,144.0
71545.11,188.0
71555.141,149.0
71563.513,180.0
71573.708,154.0
71583.734,153.0
71593.76,172.0
71603.776,180.0
71613.802,143.0
71623.82,185.0
71633.843,148.0
71643.86,143.0
71653.885,180.0
71664.161,165.0
71674.189,135.0
71684.206,152.0
71694.231,184.0
71704.256,143.0
71714.28,142.0
71724.298,148.0
71734.325,149.0
71744.344,148.0
71754.369,197.0
71764.388,153.0
71774.413,176.0
71784.434,141.0
71794.457,182.0
71804.48,144.0
71812.825,180.0
71822.858,190.0
71832.878,189.0
71842.893,187.0
71852.908,194.0
71862.926,152.0
71872.946,153.0
71883.925,188.0
71893.944,153.0
71903.962,140.0
71913.983,149.0
71924.144,156.0
71934.164,151.0
71944.185,167.0
71954.203,166.0
71964.221,185.0
71974.24,192.0
71984.259,185.0
71994.277,206.0
72004.293,184.0
72014.311,188.0
72024.329,187.0
72034.356,184.0
72044.375,183.0
72054.393,182.0
72064.424,187.0
72074.441,182.0
72084.467,181.0
72092.807,185.0
72102.825,183.0
72112.844,197.0
72123.306,185.0
72133.864,190.0
72144.187,185.0
72154.205,180.0
72164.223,178.0
72174.242,193.0
72184.264,186.0
72194.285,149.0
72202.331,146.0
72212.807,146.0
72222.826,151.0
72232.844,190.0
72243.71,184.0
72253.728,154.0
72263.746,141.0
72273.765,180.0
72283.789,177.0
72293.806,188.0
72303.834,184.0
72313.853,163.0
72323.878,156.0
72333.9,153.0
72343.928,149.0
72353.947,137.0
72363.968,166.0
72373.988,172.0
72384.017,154.0
72394.036,182.0
72404.215,145.0
72414.234,186.0
72422.41,144.0
72432.806,187.0
72442.83,167.0
72452.849,148.0
72462.867,144.0
72472.886,178.0
72483.924,143.0
72493.942,140.0
72504.224,161.0
72514.242,143.0
72524.261,138.0
72534.28,187.0
72544.305,145.0
72554.518,155.0
72562.816,185.0
72572.835,154.0
72582.862,138.0
72592.879,180.0
72604.1,175.0
72614.117,156.0
72624.134,169.0
72634.171,179.0
72644.189,180.0
72654.217,152.0
72664.241,179.0
72674.259,140.0
72684.277,145.0
72694.296,151.0
72704.314,143.0
72714.332,150.0
72724.355,143.0
72734.374,153.0
72745.451,119.0
72755.487,170.0
72763.002,141.0
72773.018,153.0
72783.037,166.0
72793.055,179.0
72803.074,202.0
72813.093,199.0
72823.113,195.0
72833.135,209.0
72843.996,171.0
72854.014,161.0
72864.663,140.0
72874.692,151.0
72884.721,180.0
72894.753,190.0
72904.784,188.0
72914.812,153.0
72922.823,145.0
72932.847,166.0
72942.865,187.0
72952.883,175.0
72963.79,154.0
72974.952,141.0
72984.972,167.0
72994.995,146.0
73002.815,193.0
73012.84,184.0
73022.857,188.0
73032.882,151.0
73042.9,190.0
73053.678,151.0
73063.699,138.0
73073.729,182.0
73083.748,143.0
73093.784,140.0
73103.801,143.0
73113.828,139.0
73123.844,179.0
73133.862,186.0
73143.883,186.0
73153.901,156.0
73163.919,163.0
73173.938,186.0
73183.957,143.0
73193.976,142.0
73203.995,143.0
73214.248,198.0
73224.266,171.0
73234.292,173.0
73244.31,176.0
73252.701,172.0
73262.729,133.0
73272.822,137.0
73282.837,173.0
73292.86,178.0
73302.877,145.0
73312.903,114.0
73324.371,180.0
73334.406,129.0
73344.425,133.0
73354.452,155.0
73364.471,130.0
73374.491,119.0
73384.532,128.0
73392.816,149.0
73402.836,153.0
73412.857,154.0
73422.877,94.0
73432.895,158.0
73443.615,89.0
73454.236,99.0
73464.268,137.0
73474.287,147.0
73484.306,102.0
73494.325,157.0
73504.348,146.0
73514.367,109.0
73524.414,190.0
73534.433,128.0
73544.46,151.0
73552.822,144.0
73563.562,97.0
73574.064,130.0
73584.093,130.0
73594.11,111.0
73604.133,146.0
73614.15,153.0
73624.213,116.0
73634.233,146.0
73644.259,154.0
73654.276,115.0
73664.3,94.0
73674.318,152.0
73684.346,146.0
73696.695,120.0
73702.837,121.0
73713.693,104.0
73723.712,135.0
73733.732,113.0
73743.752,122.0
73753.77,146.0
73763.788,154.0
73773.805,105.0
73783.827,181.0
73793.845,118.0
73804.013,181.0
73814.029,172.0
73824.199,156.0
73834.305,128.0
73844.328,169.0
73854.346,159.0
73864.373,154.0
73874.399,159.0
73884.426,111.0
73894.443,154.0
73904.462,148.0
73914.48,153.0
73924.514,185.0
73933.425,155.0
73943.709,162.0
73953.728,167.0
73964.641,157.0
73972.823,191.0
73982.842,191.0
73993.775,149.0
74003.802,149.0
74013.821,191.0
74023.869,187.0
74033.888,187.0
74043.937,178.0
74053.955,144.0
74064.404,169.0
74074.436,183.0
74084.457,188.0
74094.48,191.0
74104.503,192.0
74114.529,148.0
74122.827,148.0
74132.845,189.0
74142.874,146.0
74152.892,189.0
74163.929,157.0
74173.947,182.0
74183.968,189.0
74194.032,136.0
74204.05,190.0
74214.069,177.0
74224.093,190.0
74234.111,146.0
74244.13,198.0
74254.149,153.0
74264.167,145.0
74274.19,188.0
74284.21,149.0
74294.229,143.0
74304.899,151.0
74314.928,188.0
74324.947,190.0
74334.974,151.0
74345.012,180.0
74355.046,190.0
74362.827,149.0
74372.859,184.0
74382.88,143.0
74392.906,173.0
74404.166,145.0
74414.191,146.0
74424.334,141.0
74434.365,194.0
74444.383,194.0
74454.408,188.0
74464.432,143.0
74474.46,189.0
74484.478,149.0
74492.836,182.0
74503.694,177.0
74513.718,149.0
74524.285,193.0
74534.313,197.0
74544.33,88.0
74554.349,185.0
74564.369,141.0
74574.386,168.0
74584.41,189.0
74594.43,141.0
74604.45,198.0
74614.47,193.0
74624.491,195.0
74634.509,148.0
74644.542,182.0
74654.562,143.0
74664.851,138.0
74676.345,151.0
74683.111,190.0
74693.13,197.0
74703.674,188.0
74713.692,148.0
74723.717,193.0
74733.752,197.0
74743.777,188.0
74753.795,184.0
74764.276,138.0
74774.297,141.0
74784.324,161.0
74794.56,146.0
74804.575,141.0
74812.838,180.0
74822.855,192.0
74832.871,180.0
74842.887,179.0
74852.908,154.0
74862.924,146.0
74872.95,205.0
74883.962,154.0
74893.982,190.0
74904.001,143.0
74914.02,169.0
74924.05,141.0
74934.071,177.0
74944.103,186.0
74954.122,137.0
74964.148,177.0
74974.166,152.0
74984.193,145.0
74994.314,141.0
75004.411,167.0
75014.476,148.0
75024.503,144.0
75036.663,177.0
75043.525,174.0
75053.544,138.0
75063.569,188.0
75073.588,179.0
75083.61,179.0
75093.628,146.0
75103.656,148.0
75113.674,182.0
75123.692,185.0
75133.711,169.0
75143.892,159.0
75154.307,181.0
75164.327,184.0
75174.347,182.0
75184.369,187.0
75194.388,184.0
75204.406,187.0
75214.423,193.0
75224.44,184.0
75234.459,151.0
75244.481,179.0
75254.5,180.0
75265.831,149.0
75277.079,151.0
75283.174,148.0
75293.19,146.0
75303.206,187.0
75313.222,179.0
75323.239,140.0
75333.256,191.0
75343.273,182.0
75353.29,182.0
75364.239,187.0
75374.332,149.0
75384.352,176.0
75394.389,169.0
75404.406,179.0
75414.423,180.0
75424.443,190.0
75434.461,146.0
75442.727,182.0
75452.749,193.0
75462.843,177.0
75472.887,176.0
75483.734,177.0
75493.751,135.0
75505.425,150.0
75512.985,148.0
75523.797,181.0
75533.816,188.0
75543.838,148.0
75553.858,145.0
75563.875,155.0
75573.892,146.0
75583.909,143.0
75593.927,153.0
75603.989,165.0
75615.417,185.0
75622.907,181.0
75636.553,203.0
75642.946,140.0
75652.973,179.0
75662.995,171.0
75673.023,149.0
75683.04,146.0
75693.065,188.0
75703.082,164.0
75713.109,182.0
75723.739,136.0
75733.762,169.0
75742.823,146.0
75754.507,145.0
75762.876,191.0
75772.902,174.0
75782.92,184.0
75792.938,156.0
75802.958,156.0
75812.975,169.0
75822.992,152.0
75833.012,189.0
75844.965,149.0
75854.998,152.0
75863.11,145.0
75873.423,146.0
75883.439,187.0
75893.464,180.0
75903.481,194.0
75913.693,182.0
75923.713,145.0
75933.732,141.0
75943.757,136.0
75953.776,187.0
75963.997,146.0
75974.616,166.0
75986.78,156.0
75993.195,139.0
76003.223,135.0
76013.241,130.0
76023.258,137.0
76033.275,130.0
76043.292,131.0
76053.31,177.0
76063.328,167.0
76073.348,161.0
76083.668,196.0
76093.689,162.0
76104.56,159.0
76114.579,172.0
76122.853,166.0
76132.874,156.0
76142.893,168.0
76152.91,177.0
76162.926,187.0
76172.943,175.0
76182.961,175.0
76192.977,189.0
76203.894,185.0
76214.157,180.0
76224.175,179.0
76234.2,190.0
76244.226,185.0
76254.246,180.0
76264.278,192.0
76274.297,179.0
76284.327,159.0
76294.362,143.0
76304.391,147.0
76314.408,170.0
76324.432,163.0
76334.458,148.0
76344.482,147.0
76354.5,153.0
76362.86,158.0
76372.88,155.0
76382.905,150.0
76392.92,149.0
76402.938,159.0
76412.956,177.0
76422.974,158.0
76433.779,152.0
76444.226,166.0
76454.244,164.0
76464.261,160.0
76474.286,155.0
76484.304,177.0
76494.323,173.0
76504.408,177.0
76514.425,153.0
76524.448,129.0
76534.498,126.0
76542.871,125.0
76552.892,128.0
76563.958,130.0
76573.986,128.0
76584.022,128.0
76594.042,148.0
76604.062,140.0
76614.081,141.0
76624.105,144.0
76634.125,146.0
76644.143,141.0
76654.161,135.0
76664.181,108.0
76674.199,94.0
76684.222,104.0
76694.24,104.0
76704.264,130.0
76714.282,106.0
76724.301,92.0
76734.32,84.0
76744.342,89.0
76754.359,119.0
76764.407,94.0
76772.861,96.0
76782.881,83.0
76792.9,84.0
76803.727,84.0
76813.899,107.0
76823.916,117.0
76833.936,101.0
76843.954,83.0
76853.971,96.0
76863.993,96.0
76874.012,85.0
76884.031,102.0
76894.048,101.0
76904.068,84.0
76914.086,81.0
76924.109,120.0
76934.129,112.0
76944.154,101.0
76954.171,102.0
76964.213,84.0
76974.232,84.0
76984.257,81.0
76994.302,86.0
77004.321,94.0
77014.339,135.0
77024.357,130.0
77034.393,141.0
77044.417,121.0
77054.437,104.0
77064.46,112.0
77072.865,101.0
77082.883,89.0
77092.919,86.0
77103.787,91.0
77113.804,82.0
77123.828,86.0
77133.852,102.0
77143.869,86.0
77153.893,121.0
77163.91,97.0
77173.939,105.0
77183.961,102.0
77193.979,100.0
77204.002,82.0
77214.021,82.0
77224.039,108.0
77234.056,84.0
77244.075,92.0
77254.094,83.0
77264.118,83.0
77274.138,81.0
77284.159,114.0
77294.182,107.0
77304.206,130.0
77314.225,104.0
77324.249,85.0
77334.28,84.0
77344.303,101.0
77354.326,101.0
77364.366,86.0
77374.382,83.0
77384.4,86.0
77394.42,86.0
77404.452,99.0
77414.48,117.0
77424.497,142.0
77432.868,134.0
77442.887,128.0
77453.753,129.0
77463.796,114.0
77473.813,97.0
77483.833,96.0
77493.851,107.0
77503.871,118.0
77513.89,128.0
77523.919,92.0
77533.949,109.0
77543.967,105.0
77553.986,90.0
77564.006,102.0
77574.026,104.0
77584.047,112.0
77594.066,110.0
77604.091,103.0
77614.109,83.0
77624.129,121.0
77634.149,79.0
77644.17,111.0
77654.197,105.0
77664.225,99.0
77674.242,100.0
77684.28,84.0
77694.3,80.0
77704.326,86.0
77714.344,105.0
77724.367,84.0
77734.384,85.0
77744.42,97.0
77752.871,83.0
77766.572,89.0
77773.826,128.0
77783.843,83.0
77793.86,88.0
77803.881,83.0
77813.903,132.0
77823.926,109.0
77833.944,132.0
77843.964,135.0
77853.986,130.0
77864.004,132.0
77874.023,128.0
77884.043,107.0
77894.069,112.0
77904.086,104.0
77914.105,115.0
77924.122,135.0
77934.14,92.0
77944.162,88.0
77954.181,85.0
77964.202,103.0
77974.221,83.0
77984.241,83.0
77994.259,86.0
78004.277,164.0
78014.303,105.0
78024.319,88.0
78034.337,91.0
78044.357,101.0
78054.375,83.0
78064.398,84.0
78074.435,100.0
78084.46,84.0
78092.89,84.0
78102.908,82.0
78112.927,88.0
78126.634,96.0
78133.807,110.0
78143.826,86.0
78153.844,102.0
78163.864,88.0
78173.889,137.0
78183.912,136.0
78193.933,127.0
78203.953,132.0
78213.975,153.0
78224.012,135.0
78234.034,103.0
78244.054,111.0
78254.075,109.0
78264.096,112.0
78274.142,113.0
78284.163,86.0
78294.184,108.0
78304.218,142.0
78314.243,98.0
78324.26,83.0
78334.278,83.0
78344.297,83.0
78354.316,83.0
78364.339,120.0
78374.363,107.0
78384.383,83.0
78394.418,101.0
78404.441,99.0
78412.877,101.0
78422.914,93.0
78432.931,106.0
78442.951,85.0
78453.72,101.0
78463.745,92.0
78473.762,86.0
78483.781,134.0
78493.803,101.0
78503.821,82.0
78513.838,103.0
78523.859,88.0
78533.878,91.0
78543.9,88.0
78553.917,95.0
78563.935,118.0
78573.963,131.0
78583.981,97.0
78594.001,151.0
78604.024,91.0
78614.045,103.0
78624.068,135.0
78634.088,136.0
78642.138,128.0
78652.88,86.0
78662.924,84.0
78672.942,86.0
78682.957,90.0
78692.973,91.0
78702.995,97.0
78713.023,99.0
78723.317,87.0
78733.873,112.0
78743.891,79.0
78753.914,104.0
78763.93,101.0
78773.95,102.0
78783.973,94.0
78793.992,83.0
78804.012,86.0
78814.031,101.0
78824.052,82.0
78834.07,83.0
78844.086,103.0
78854.11,110.0
78864.127,104.0
78874.149,101.0
78884.187,84.0
78894.207,102.0
78904.23,107.0
78914.251,83.0
78924.269,90.0
78934.287,101.0
78944.365,104.0
78954.383,115.0
78964.407,112.0
78974.426,116.0
78984.447,151.0
78992.885,149.0
79002.911,151.0
79012.926,138.0
79022.944,132.0
79032.974,145.0
79042.991,145.0
79053.009,143.0
79063.035,130.0
79073.052,128.0
79083.789,114.0
79093.821,100.0
79103.844,98.0
79113.862,154.0
79123.884,144.0
79133.902,86.0
79143.92,107.0
79153.957,94.0
79163.976,84.0
79173.994,84.0
79184.012,80.0
79194.036,84.0
79204.054,132.0
79214.079,114.0
79224.097,102.0
79234.133,104.0
79244.152,102.0
79254.17,84.0
79264.193,87.0
79274.212,84.0
79284.231,83.0
79294.248,91.0
79304.268,91.0
79314.287,96.0
79324.333,101.0
79334.359,122.0
79344.376,83.0
79354.398,83.0
79364.417,83.0
79374.436,88.0
79384.464,83.0
79392.89,86.0
79402.911,83.0
79412.928,83.0
79422.947,89.0
79432.965,118.0
79443.575,137.0
79453.991,112.0
79464.008,154.0
79474.029,136.0
79484.048,87.0
79494.069,107.0
79504.094,126.0
79514.111,165.0
79524.133,193.0
79534.153,175.0
79544.171,163.0
79554.188,180.0
79564.287,178.0
79574.305,181.0
79584.352,191.0
79594.379,182.0
79604.413,179.0
79614.43,177.0
79624.462,179.0
79634.481,176.0
79644.508,142.0
79654.526,180.0
79664.551,178.0
79672.888,176.0
79686.611,185.0
79694.392,174.0
79704.42,177.0
79714.44,177.0
79724.47,176.0
79734.487,184.0
79744.515,182.0
79754.532,179.0
79764.556,190.0
79772.891,180.0
79782.909,176.0
79792.927,179.0
79804.015,171.0
79814.558,169.0
79824.577,171.0
79833.662,177.0
79843.702,187.0
79853.719,187.0
79863.738,202.0
79873.755,186.0
79883.773,184.0
79893.792,186.0
79903.809,178.0
79913.826,178.0
79923.893,172.0
79934.484,175.0
79944.516,184.0
79954.533,179.0
79964.552,177.0
79972.893,180.0
79982.909,180.0
79992.925,174.0
80002.94,172.0
80012.956,186.0
80022.972,188.0
80033.785,189.0
80043.935,180.0
80054.379,180.0
80064.405,178.0
80074.422,185.0
80084.441,175.0
80094.459,179.0
80104.481,178.0
80114.499,184.0
80124.517,188.0
80134.536,190.0
80144.555,182.0
80154.59,142.0
80164.665,166.0
80174.693,156.0
80185.273,140.0
80195.307,143.0
80205.325,178.0
80215.352,187.0
80222.901,190.0
80232.926,190.0
80242.946,193.0
80252.964,189.0
80262.984,178.0
80273.002,177.0
80283.784,193.0
80294.333,180.0
80304.356,175.0
80314.383,179.0
80324.405,178.0
80334.43,179.0
80344.453,191.0
80354.479,173.0
80364.502,174.0
80374.526,185.0
80384.546,177.0
80394.574,180.0
80404.603,186.0
80414.864,184.0
80425.539,181.0
80435.565,188.0
80442.927,179.0
80452.949,178.0
80462.971,179.0
80472.997,182.0
80483.739,184.0
80493.757,186.0
80503.774,182.0
80513.793,187.0
80523.819,178.0
80534.445,181.0
80544.462,172.0
80554.48,179.0
80564.5,182.0
80574.521,187.0
80584.544,179.0
80594.563,180.0
80602.909,188.0
80612.926,195.0
80622.943,193.0
80632.963,201.0
80644.331,184.0
80655.461,195.0
80662.951,187.0
80674.542,182.0
80684.561,183.0
80696.751,187.0
80702.919,190.0
80712.95,182.0
80722.969,183.0
80732.989,190.0
80743.013,182.0
80753.031,182.0
80763.754,184.0
80775.507,176.0
80782.942,178.0
80793.174,177.0
80803.19,177.0
80813.213,188.0
80823.236,175.0
80833.255,175.0
80843.271,179.0
80853.29,182.0
80863.309,186.0
80873.326,182.0
80884.224,178.0
80894.241,181.0
80904.259,183.0
80914.278,176.0
80924.301,183.0
80934.321,182.0
80944.343,184.0
80954.362,178.0
80964.381,179.0
80974.4,192.0
80984.418,178.0
80994.436,182.0
81004.459,180.0
81014.505,184.0
81024.575,175.0
81034.595,182.0
81044.626,177.0
81053.843,185.0
81063.871,184.0
81073.89,183.0
81083.915,184.0
81093.938,174.0
81103.963,180.0
81113.984,182.0
81124.011,176.0
81135.488,182.0
81145.516,182.0
81154.156,177.0
81164.175,182.0
81174.193,184.0
81184.218,150.0
81194.237,150.0
81204.263,174.0
81214.281,156.0
81224.3,171.0
81234.321,169.0
81244.34,171.0
81254.359,153.0
81264.376,142.0
81272.804,141.0
81282.907,145.0
81292.925,151.0
81302.953,156.0
81312.969,171.0
81322.992,152.0
81333.01,169.0
81343.036,151.0
81353.052,153.0
81363.628,148.0
81374.114,152.0
81384.135,142.0
81394.695,143.0
81402.906,172.0
81412.927,169.0
81422.944,175.0
81432.963,164.0
81442.981,156.0
81452.999,156.0
81463.018,153.0
81473.035,145.0
81483.728,166.0
81493.844,145.0
81503.861,148.0
81513.879,151.0
81523.899,152.0
81533.916,149.0
81543.935,149.0
81553.952,154.0
81563.977,169.0
81573.996,172.0
81584.022,170.0
81594.041,172.0
81604.055,165.0
81614.071,154.0
81624.356,154.0
81634.881,148.0
81642.902,148.0
81652.919,149.0
81662.936,154.0
81672.953,155.0
81682.972,151.0
81692.989,178.0
81703.006,158.0
81713.023,153.0
81723.71,169.0
81734.143,136.0
81744.168,148.0
81754.185,156.0
81764.204,140.0
81774.22,146.0
81784.244,154.0
81794.264,152.0
81804.283,154.0
81814.3,146.0
81824.319,171.0
81834.34,154.0
81844.365,158.0
81854.43,148.0
81864.972,153.0
81874.996,148.0
81882.907,151.0
81892.926,151.0
81902.944,153.0
81912.994,161.0
81923.011,147.0
81933.035,180.0
81943.051,153.0
81953.072,159.0
81963.661,151.0
81973.684,146.0
81983.701,145.0
81993.718,159.0
82003.752,144.0
82013.77,158.0
82023.786,151.0
82033.804,150.0
82043.836,156.0
82053.851,153.0
82063.867,155.0
82073.884,160.0
82083.926,153.0
82094.079,146.0
82104.099,157.0
82114.513,163.0
82122.91,177.0
82132.927,153.0
82142.943,177.0
82152.959,179.0
82162.977,169.0
82172.995,162.0
82183.014,167.0
82193.031,174.0
82203.545,155.0
82213.785,141.0
82223.799,151.0
82233.825,159.0
82243.842,144.0
82253.868,174.0
82263.888,169.0
82273.909,147.0
82283.927,146.0
82293.951,149.0
82303.97,172.0
82313.997,159.0
82324.02,158.0
82334.628,146.0
82345.408,147.0
82353.924,126.0
82363.947,101.0
82373.963,145.0
82383.984,149.0
82394.002,154.0
82404.019,144.0
82414.036,156.0
82424.054,148.0
82434.075,149.0
82444.093,150.0
82454.111,149.0
82464.132,165.0
82474.173,166.0
82484.191,157.0
82494.231,171.0
82504.255,169.0
82514.274,148.0
82524.292,146.0
82534.31,169.0
82544.33,170.0
82554.367,158.0
82564.431,145.0
82574.453,154.0
82584.479,154.0
82595.098,148.0
82605.127,107.0
82612.932,143.0
82622.95,157.0
82632.968,151.0
82642.986,147.0
82653.007,150.0
82663.025,148.0
82673.043,154.0
82683.294,151.0
82694.068,177.0
82704.089,159.0
82714.119,163.0
82724.137,140.0
82734.16,175.0
82744.186,144.0
82754.205,155.0
82764.228,150.0
82774.247,150.0
82784.265,144.0
82794.283,171.0
82804.304,174.0
82814.413,168.0
82824.435,153.0
82834.461,173.0
82844.479,151.0
82854.5,123.0
82864.523,139.0
82872.969,127.0
82882.986,163.0
82893.003,172.0
82903.022,171.0
82913.041,153.0
82923.79,154.0
82934.228,149.0
82944.252,151.0
82954.272,158.0
82964.3,154.0
82974.319,150.0
82984.347,163.0
82994.365,159.0
83004.392,145.0
83014.433,147.0
83024.459,140.0
83034.483,160.0
83044.514,98.0
83055.432,101.0
83066.821,110.0
83074.807,149.0
83082.932,140.0
83092.952,148.0
83102.969,146.0
83112.997,149.0
83123.015,146.0
83133.034,153.0
83143.051,167.0
83153.069,148.0
83163.786,149.0
83173.804,147.0
83183.824,149.0
83193.84,150.0
83203.858,147.0
83213.875,153.0
83223.896,145.0
83233.914,155.0
83243.932,152.0
83253.953,153.0
83263.972,151.0
83273.992,133.0
83284.011,121.0
83294.031,115.0
83305.108,112.0
83315.137,111.0
83325.158,114.0
83335.184,117.0
83345.214,164.0
83355.243,158.0
83362.931,154.0
83372.954,117.0
83382.975,151.0
83393.001,171.0
83403.812,109.0
83413.836,125.0
83423.859,105.0
83433.921,150.0
83443.94,148.0
83453.966,107.0
83463.987,146.0
83474.008,153.0
83484.041,99.0
83494.066,153.0
83504.117,149.0
83514.142,146.0
83524.624,107.0
83534.652,162.0
83544.686,154.0
83554.711,148.0
83562.937,117.0
83572.962,150.0
83582.981,109.0
83592.999,122.0
83603.015,145.0
83613.035,133.0
83623.055,83.0
83633.072,138.0
83643.681,156.0
83653.776,146.0
83664.167,157.0
83674.186,172.0
83684.205,149.0
83694.223,158.0
83704.247,112.0
83714.265,151.0
83724.285,148.0
83734.305,125.0
83744.323,172.0
83754.342,159.0
83764.367,132.0
83774.386,137.0
83784.405,110.0
83794.426,156.0
83804.449,157.0
83814.467,110.0
83824.492,158.0
83834.509,117.0
83844.526,148.0
83852.945,155.0
83862.963,152.0
83872.994,106.0
83884.6,133.0
83893.875,157.0
83903.895,147.0
83913.926,156.0
83923.944,153.0
83933.967,164.0
83943.993,154.0
83954.012,156.0
83964.035,156.0
83974.056,151.0
83984.08,123.0
83994.099,156.0
84004.127,149.0
84016.082,153.0
84023.084,163.0
84035.357,176.0
84042.934,146.0
84052.951,148.0
84062.972,105.0
84072.992,164.0
84083.008,153.0
84093.024,163.0
84103.044,153.0
84113.06,151.0
84123.986,181.0
84134.619,107.0
84144.643,120.0
84154.667,140.0
84164.693,154.0
84172.94,160.0
84182.959,154.0
84192.978,161.0
84202.996,169.0
84213.013,180.0
84223.03,163.0
84233.049,183.0
84244.015,100.0
84254.034,149.0
84264.06,137.0
84274.081,176.0
84284.105,151.0
84294.125,159.0
84304.157,154.0
84314.176,166.0
84324.202,137.0
84334.221,99.0
84344.245,114.0
84354.265,108.0
84364.283,153.0
84374.394,193.0
84384.414,166.0
84394.433,159.0
84404.455,152.0
84414.473,161.0
84424.498,160.0
84434.516,125.0
84444.536,163.0
84452.944,163.0
84462.963,128.0
84472.981,143.0
84483.718,122.0
84493.831,114.0
84503.862,91.0
84513.881,155.0
84523.9,85.0
84533.918,97.0
84543.94,83.0
84553.959,93.0
84563.98,119.0
84574.015,121.0
84584.035,83.0
84594.052,91.0
84604.073,140.0
84614.099,105.0
84624.117,84.0
84634.154,120.0
84644.197,87.0
84654.218,133.0
84664.244,137.0
84674.282,128.0
84684.302,136.0
84694.322,87.0
84704.342,85.0
84714.373,83.0
84724.397,105.0
84734.42,107.0
84744.437,86.0
84754.469,84.0
84764.492,82.0
84773.934,99.0
84783.954,102.0
84793.973,82.0
84803.992,95.0
84814.01,83.0
84824.028,92.0
84834.049,86.0
84844.066,94.0
84854.09,108.0
84864.108,128.0
84874.129,130.0
84884.163,119.0
84894.184,100.0
84904.213,113.0
84914.24,99.0
84924.259,110.0
84934.278,92.0
84944.309,130.0
84954.33,115.0
84964.355,104.0
84974.379,115.0
84984.399,150.0
84994.42,100.0
85004.438,81.0
85014.457,99.0
85024.481,83.0
85034.502,83.0
85042.964,84.0
85052.984,95.0
85063.903,83.0
85073.924,83.0
85084.12,111.0
85094.146,99.0
85104.164,146.0
85114.184,98.0
85124.203,98.0
85134.222,81.0
85144.246,120.0
85154.264,83.0
85164.283,89.0
85174.302,81.0
85184.337,94.0
85194.355,98.0
85204.378,100.0
85214.403,99.0
85224.452,81.0
85234.47,87.0
85244.489,91.0
85252.956,83.0
85262.978,83.0
85272.997,119.0
85283.033,91.0
85293.052,83.0
85303.071,92.0
85313.089,164.0
85323.742,91.0
85333.917,115.0
85343.934,135.0
85353.953,156.0
85363.998,165.0
85374.015,86.0
85384.04,138.0
85394.066,97.0
85404.083,98.0
85414.105,98.0
85424.124,89.0
85434.147,84.0
85444.167,128.0
85454.192,114.0
85464.231,88.0
85474.25,91.0
85484.269,88.0
85494.316,86.0
85504.343,96.0
85514.361,82.0
85524.378,88.0
85534.396,129.0
85544.414,83.0
85554.455,127.0
85564.477,100.0
85574.5,107.0
85584.518,83.0
85593.005,119.0
85603.034,83.0
85613.053,86.0
85623.075,101.0
85633.092,83.0
85643.108,118.0
85653.124,84.0
85663.158,130.0
85673.176,131.0
85683.621,126.0
85693.736,112.0
85703.752,104.0
85713.768,87.0
85723.786,92.0
85733.804,102.0
85743.828,116.0
85753.844,97.0
85763.886,97.0
85773.902,122.0
85783.918,86.0
85792.181,84.0
85804.511,130.0
85814.533,140.0
85824.554,83.0
85832.962,119.0
85842.978,141.0
85852.994,87.0
85863.013,88.0
85873.032,83.0
85883.049,80.0
85893.074,89.0
85903.091,99.0
85913.106,82.0
85923.661,87.0
85934.02,114.0
85944.147,85.0
85954.165,86.0
85964.182,83.0
85974.199,82.0
85984.245,84.0
85994.263,122.0
86004.286,112.0
86014.305,133.0
86024.324,137.0
86034.364,90.0
86044.387,97.0
86052.272,104.0
86064.423,99.0
86074.442,133.0
86084.476,98.0
86094.496,99.0
86104.524,105.0
86112.969,81.0
86122.989,88.0
86133.011,86.0
86143.043,85.0
86153.065,88.0
86163.959,119.0
86173.982,105.0
86184.015,82.0
86194.037,86.0
86204.055,121.0
86214.076,104.0
86224.114,97.0
86234.132,84.0
86244.151,120.0
86254.187,85.0
86264.209,84.0
86274.227,120.0
86284.267,120.0
86294.305,115.0
86304.33,84.0
86314.348,83.0
86324.369,83.0
86334.388,84.0
86344.431,83.0
86354.451,104.0
86364.47,105.0
86374.489,121.0
86384.508,83.0
86392.969,84.0
86403.943,132.0
86413.967,130.0
86423.985,82.0
86434.005,86.0
86444.024,88.0
86454.042,91.0
86464.076,84.0
86474.096,86.0
86484.113,87.0
86494.131,84.0
86504.149,92.0
86514.167,98.0
86524.187,136.0
86534.206,117.0
86544.225,104.0
86554.259,98.0
86564.277,86.0
86574.312,103.0
86584.335,83.0
86594.353,136.0
86604.401,88.0
86614.42,83.0
86624.441,84.0
86634.459,92.0
86644.504,112.0
86654.53,109.0
86664.547,84.0
86674.577,94.0
86682.972,84.0
86692.989,88.0
86703.007,115.0
86713.023,82.0
86723.045,84.0
86733.062,88.0
86743.08,84.0
86753.102,83.0
86763.741,92.0
86773.842,98.0
86783.858,86.0
86793.877,82.0
86803.896,91.0
86813.914,83.0
86823.939,92.0
86833.957,87.0
86844.05,83.0
86854.075,83.0
86864.092,94.0
86874.118,84.0
86884.157,99.0
86894.187,93.0
86904.206,83.0
86914.241,83.0
86924.26,84.0
86934.28,86.0
86944.305,83.0
86954.323,85.0
86964.349,82.0
86974.369,80.0
86984.388,81.0
86994.407,87.0
87004.428,112.0
87014.477,109.0
87024.495,120.0
87034.515,82.0
87042.993,82.0
87053.01,88.0
87063.03,97.0
87073.074,83.0
87083.091,86.0
87093.106,83.0
87103.122,89.0
87113.164,83.0
87123.779,110.0
87133.937,103.0
87143.955,84.0
87153.997,86.0
87164.017,104.0
87174.034,84.0
87184.055,82.0
87194.073,98.0
87204.09,120.0
87214.136,84.0
87224.154,88.0
87234.174,84.0
87244.202,95.0
87254.228,111.0
87264.245,86.0
87274.264,91.0
87284.285,87.0
87294.334,87.0
87304.356,89.0
87314.384,87.0
87324.403,83.0
87334.421,89.0
87344.445,104.0
87354.475,85.0
87364.499,91.0
87374.517,132.0
87384.537,93.0
87394.578,88.0
87402.973,84.0
87412.991,99.0
87423.888,89.0
87433.909,99.0
87443.927,105.0
87453.946,106.0
87463.964,82.0
87473.982,84.0
87484.0,108.0
87494.025,114.0
87504.043,136.0
87514.075,122.0
87524.098,133.0
87534.118,84.0
87544.142,83.0
87554.161,86.0
87564.203,82.0
87574.222,79.0
87584.242,97.0
87594.262,84.0
87604.316,108.0
87614.333,99.0
87624.353,92.0
87634.373,95.0
87644.393,81.0
87654.423,84.0
87664.45,98.0
87674.47,84.0
87684.496,89.0
87694.516,84.0
87702.984,95.0
87713.001,85.0
87724.032,131.0
87734.055,101.0
87744.072,86.0
87754.091,84.0
87764.109,88.0
87774.127,84.0
87784.168,88.0
87794.186,83.0
87804.205,88.0
87814.223,89.0
87824.241,85.0
87834.26,96.0
87844.283,105.0
87854.303,117.0
87864.332,89.0
87874.35,88.0
87884.375,89.0
87894.394,86.0
87904.418,89.0
87914.438,88.0
87924.457,84.0
87934.476,88.0
87944.494,88.0
87954.532,85.0
87964.558,142.0
87974.579,135.0
87984.6,107.0
87994.626,83.0
88002.982,84.0
88013.009,84.0
88023.029,91.0
88033.069,86.0
88043.091,84.0
88053.108,95.0
88063.124,83.0
88073.141,88.0
88083.802,112.0
88093.826,123.0
88103.843,87.0
88113.869,88.0
88123.885,81.0
88133.904,83.0
88143.925,84.0
88153.942,84.0
88163.96,88.0
88173.981,81.0
88184.001,83.0
88194.018,95.0
88204.037,86.0
88214.088,138.0
88224.109,87.0
88234.133,91.0
88244.153,89.0
88254.189,87.0
88264.215,84.0
88274.235,94.0
88284.255,86.0
88294.277,87.0
88304.298,86.0
88314.336,90.0
88324.393,94.0
88334.412,89.0
88344.432,94.0
88354.45,93.0
88364.482,87.0
88374.502,89.0
88384.529,105.0
88392.995,92.0
88403.012,94.0
88413.028,83.0
88423.044,88.0
88433.061,83.0
88443.806,92.0
88453.826,138.0
88463.841,89.0
88473.859,81.0
88483.88,83.0
88493.896,82.0
88503.915,112.0
88513.933,94.0
88523.949,83.0
88533.973,83.0
88543.992,86.0
88554.009,84.0
88564.056,110.0
88574.074,97.0
88584.094,103.0
88594.115,83.0
88604.135,83.0
88614.153,107.0
88624.181,105.0
88634.2,92.0
88644.22,104.0
88654.241,103.0
88664.259,95.0
88674.278,84.0
88684.3,142.0
88694.319,110.0
88704.345,86.0
88714.362,88.0
88724.397,115.0
88734.415,135.0
88744.439,94.0
88754.46,83.0
88764.483,122.0
88774.518,109.0
88784.537,98.0
88793.002,132.0
88804.603,123.0
88814.624,114.0
88823.067,130.0
88833.096,131.0
88843.129,85.0
88853.147,87.0
88863.185,83.0
88873.211,82.0
88883.229,127.0
88893.253,82.0
88903.288,82.0
88913.303,86.0
88923.802,91.0
88933.835,98.0
88943.852,84.0
88953.884,95.0
88963.903,92.0
88973.927,101.0
88983.948,103.0
88993.966,81.0
89003.987,82.0
89014.007,84.0
89024.026,94.0
89034.05,83.0
89044.142,93.0
89054.166,110.0
89064.184,83.0
89074.206,83.0
89084.226,81.0
89094.245,81.0
89104.267,84.0
89114.286,81.0
89124.304,83.0
89134.323,84.0
89144.343,84.0
89154.364,84.0
89164.385,94.0
89174.412,117.0
89184.429,119.0
89194.472,91.0
89204.491,84.0
89214.51,85.0
89224.531,83.0
89234.609,86.0
89242.998,83.0
89253.018,92.0
89263.036,88.0
89273.052,82.0
89283.722,83.0
89293.914,101.0
89303.93,83.0
89313.949,101.0
89323.969,101.0
89333.988,84.0
89344.009,102.0
89354.027,84.0
89364.045,88.0
89374.062,86.0
89384.079,83.0
89394.096,84.0
89404.112,91.0
89414.136,107.0
89424.156,91.0
89434.176,101.0
89444.203,83.0
89454.222,83.0
89464.243,83.0
89474.262,84.0
89484.281,86.0
89494.299,92.0
89504.318,88.0
89514.336,88.0
89524.375,109.0
89534.412,115.0
89544.431,84.0
89554.454,88.0
89564.477,86.0
89574.497,102.0
89584.52,128.0
89594.538,105.0
89604.554,143.0
89616.133,124.0
89623.021,106.0
89633.038,87.0
89643.831,112.0
89653.855,105.0
89663.871,103.0
89673.889,83.0
89683.905,86.0
89693.923,103.0
89703.947,117.0
89713.965,107.0
89723.988,109.0
89734.079,112.0
89744.098,81.0
89754.117,107.0
89764.138,109.0
89774.17,109.0
89784.192,83.0
89794.21,82.0
89804.229,86.0
89814.249,84.0
89824.282,110.0
89834.298,84.0
89844.317,88.0
89854.336,84.0
89864.354,97.0
89874.373,83.0
89884.396,96.0
89894.416,104.0
89904.433,84.0
89914.47,90.0
89924.489,118.0
89934.507,92.0
89944.531,83.0
89954.552,84.0
89964.573,83.0
89973.01,84.0
89983.051,83.0
89993.068,83.0
90003.803,91.0
90014.024,89.0
90024.041,97.0
90034.068,84.0
90044.087,81.0
90054.104,130.0
90064.129,85.0
90074.148,119.0
90084.165,82.0
90094.182,82.0
90104.202,82.0
90114.22,84.0
90124.238,128.0
90134.258,93.0
90144.276,135.0
90154.295,85.0
90164.315,83.0
90174.338,86.0
90184.377,120.0
90194.395,84.0
90204.415,129.0
90214.433,133.0
90224.453,82.0
90234.471,133.0
90244.494,103.0
90254.517,133.0
90264.538,120.0
90274.557,101.0
90284.576,124.0
90293.01,135.0
90303.025,109.0
90313.041,92.0
90323.057,127.0
90333.075,107.0
90343.093,95.0
90353.116,83.0
90363.876,117.0
90374.07,87.0
90384.087,88.0
90394.105,93.0
90404.123,105.0
90414.14,133.0
90424.175,99.0
90434.194,95.0
90444.212,84.0
90454.254,84.0
90464.273,83.0
90474.292,82.0
90484.312,90.0
90494.336,107.0
90504.355,84.0
90514.391,84.0
90524.408,89.0
90534.426,85.0
90544.453,88.0
90554.471,91.0
90564.506,89.0
90574.525,89.0
90584.545,102.0
90594.571,115.0
90604.597,86.0
90614.615,106.0
90624.633,91.0
90633.023,89.0
90643.043,89.0
90653.067,87.0
90663.088,107.0
90673.106,89.0
90683.126,88.0
90693.148,88.0
90703.171,98.0
90713.19,83.0
90723.734,126.0
90733.972,114.0
90743.99,83.0
90754.033,84.0
90764.052,91.0
90774.071,85.0
90784.093,88.0
90794.148,84.0
90804.166,84.0
90814.206,80.0
90824.224,95.0
90834.245,91.0
90844.264,94.0
90854.283,105.0
90864.303,82.0
90874.322,83.0
90884.341,81.0
90894.359,93.0
90904.382,91.0
90914.403,87.0
90924.424,87.0
90934.46,83.0
90944.479,81.0
90954.501,84.0
90964.525,94.0
90974.542,107.0
90984.56,88.0
90994.581,84.0
91003.031,83.0
91013.047,84.0
91023.066,81.0
91033.082,82.0
91043.096,82.0
91053.114,82.0
91063.155,86.0
91073.175,91.0
91083.577,97.0
91093.951,105.0
91104.02,82.0
91114.038,97.0
91124.059,135.0
91134.077,123.0
91144.1,125.0
91154.119,130.0
91164.135,128.0
91174.153,129.0
91184.172,121.0
91194.19,113.0
91204.209,94.0
91214.231,109.0
91224.249,128.0
91234.267,94.0
91244.289,92.0
91254.316,96.0
91264.338,112.0
91274.358,83.0
91284.376,85.0
91294.397,99.0
91304.416,93.0
91314.434,89.0
91324.458,87.0
91334.478,97.0
91344.497,89.0
91354.529,88.0
91364.569,92.0
91374.587,87.0
91384.614,117.0
91393.039,84.0
91403.059,83.0
91413.08,86.0
91423.102,84.0
91433.121,86.0
91443.926,145.0
91453.952,92.0
91463.97,82.0
91473.991,83.0
91484.01,84.0
91494.026,88.0
91504.05,83.0
91514.069,96.0
91524.086,83.0
91534.103,86.0
91544.121,130.0
91554.138,130.0
91564.16,101.0
91574.187,113.0
91584.206,96.0
91594.225,84.0
91604.247,84.0
91614.266,87.0
91624.294,134.0
91634.352,94.0
91644.372,108.0
91654.392,83.0
91664.418,82.0
91674.434,82.0
91684.456,127.0
91694.475,130.0
91704.494,86.0
91714.513,80.0
91724.54,84.0
91734.568,86.0
91744.59,99.0
91753.047,91.0
91763.066,88.0
91773.09,87.0
91783.105,87.0
91793.993,90.0
91804.011,120.0
91814.035,95.0
91824.053,86.0
91834.072,85.0
91844.089,85.0
91854.109,96.0
91864.134,118.0
91874.153,127.0
91884.173,132.0
91894.192,137.0
91904.251,122.0
91914.27,117.0
91924.293,99.0
91934.31,128.0
91944.33,94.0
91954.348,92.0
91964.366,87.0
91974.386,84.0
91984.408,93.0
91994.427,84.0
92004.446,107.0
92014.465,84.0
92024.483,81.0
92034.525,119.0
92044.548,134.0
92054.567,106.0
92064.585,103.0
92074.607,122.0
92083.053,120.0
92093.091,143.0
92103.11,97.0
92113.128,120.0
92123.155,94.0
92133.174,122.0
92143.192,91.0
92153.211,82.0
92163.616,117.0
92173.974,96.0
92183.992,121.0
92194.053,128.0
92204.083,125.0
92214.102,128.0
92224.126,153.0
92234.158,131.0
92244.177,81.0
92254.194,89.0
92264.22,92.0
92274.248,96.0
92284.271,93.0
92294.299,109.0
92304.315,102.0
92314.332,87.0
92324.35,83.0
92334.369,84.0
92344.393,91.0
92354.411,86.0
92364.444,83.0
92374.462,87.0
92384.482,95.0
92394.5,87.0
92404.526,87.0
92414.544,121.0
92424.565,88.0
92434.592,94.0
92444.619,96.0
92453.055,82.0
92463.071,88.0
92473.089,87.0
92483.108,81.0
92493.124,81.0
92503.139,87.0
92513.158,133.0
92523.912,102.0
92534.036,112.0
92544.053,120.0
92554.072,82.0
92564.092,88.0
92574.112,102.0
92584.135,119.0
92594.155,100.0
92604.174,97.0
92614.194,93.0
92624.216,92.0
92634.236,82.0
92644.254,127.0
92654.278,112.0
92664.296,83.0
92674.316,89.0
92684.351,88.0
92694.37,91.0
92704.392,118.0
92714.409,86.0
92724.449,94.0
92734.469,89.0
92744.498,81.0
92754.515,84.0
92764.542,131.0
92774.562,100.0
92784.58,97.0
92794.598,83.0
92804.617,81.0
92813.076,101.0
92823.112,120.0
92833.13,98.0
92843.149,81.0
92853.17,126.0
92863.189,117.0
92873.208,131.0
92883.91,97.0
92893.93,112.0
92903.946,103.0
92913.966,95.0
92923.992,93.0
92934.009,130.0
92944.024,125.0
92954.046,91.0
92964.067,82.0
92974.09,85.0
92984.109,86.0
92994.128,90.0
93004.152,109.0
93014.171,95.0
93024.191,83.0
93034.212,84.0
93044.235,88.0
93054.253,86.0
93064.276,85.0
93074.294,93.0
93084.313,91.0
93094.345,83.0
93104.362,83.0
93114.381,87.0
93124.404,101.0
93134.423,127.0
93144.441,83.0
93154.46,84.0
93164.48,80.0
93174.498,82.0
93184.518,83.0
93194.558,83.0
93204.575,130.0
93214.593,131.0
93222.878,85.0
93233.071,113.0
93246.766,93.0
93253.878,115.0
93263.895,100.0
93273.931,94.0
93283.949,89.0
93293.971,130.0
93303.995,107.0
93314.012,94.0
93324.03,84.0
93334.046,82.0
93344.067,97.0
93354.085,83.0
93364.104,113.0
93374.126,81.0
93384.143,84.0
93394.162,79.0
93404.182,81.0
93414.198,83.0
93424.221,81.0
93434.241,85.0
93444.26,89.0
93454.277,85.0
93464.296,86.0
93474.314,88.0
93484.335,118.0
93494.352,116.0
93504.37,83.0
93514.388,84.0
93524.405,91.0
93534.43,85.0
93544.452,86.0
93554.468,88.0
93564.486,86.0
93574.503,89.0
93584.529,84.0
93594.546,82.0
93604.573,88.0
93614.596,112.0
93624.614,88.0
93633.072,83.0
93643.088,85.0
93653.111,81.0
93663.127,99.0
93673.143,81.0
93683.161,97.0
93693.177,133.0
93703.195,128.0
93713.217,125.0
93723.226,127.0
93743.834,98.0
93753.852,96.0
93763.868,84.0
93773.887,99.0
93783.912,116.0
93793.929,85.0
93803.946,105.0
93813.965,98.0
93824.044,83.0
93834.062,82.0
93844.082,96.0
93854.104,114.0
93864.128,84.0
93874.146,82.0
93884.165,86.0
93894.184,84.0
93904.206,89.0
93914.225,83.0
93924.243,86.0
93934.265,86.0
93944.286,91.0
93954.326,86.0
93964.353,89.0
93974.371,112.0
93984.39,90.0
93994.407,91.0
94004.426,83.0
94014.443,86.0
94024.498,105.0
94034.516,84.0
94044.535,97.0
94054.574,85.0
94064.593,83.0
94074.617,83.0
94084.644,109.0
94094.664,112.0
94104.694,83.0
94113.078,86.0
94123.112,85.0
94133.131,84.0
94143.168,130.0
94153.187,95.0
94163.234,86.0
94173.25,85.0
94183.267,82.0
94193.286,83.0
94203.845,97.0
94213.967,112.0
94223.986,88.0
94234.002,81.0
94244.021,85.0
94254.039,90.0
94264.062,130.0
94274.08,133.0
94284.098,83.0
94294.118,120.0
94304.137,105.0
94314.156,91.0
94324.18,113.0
94334.198,104.0
94344.218,112.0
94354.237,92.0
94364.259,87.0
94374.299,90.0
94384.32,136.0
94394.338,94.0
94404.381,96.0
94414.401,104.0
94424.422,110.0
94434.44,135.0
94444.482,127.0
94454.502,114.0
94464.52,83.0
94474.561,86.0
94484.579,91.0
94494.596,81.0
94504.62,82.0
94513.09,102.0
94523.11,86.0
94533.129,82.0
94543.863,84.0
94553.881,86.0
94564.076,89.0
94574.101,114.0
94584.119,85.0
94594.137,89.0
94604.156,85.0
94614.206,100.0
94624.232,102.0
94634.249,86.0
94644.278,82.0
94654.298,89.0
94664.317,83.0
94674.336,84.0
94684.386,110.0
94694.413,116.0
94704.432,85.0
94714.452,82.0
94724.472,90.0
94734.491,84.0
94744.515,89.0
94754.533,89.0
94764.572,86.0
94774.59,91.0
94784.612,97.0
94794.63,87.0
94804.667,110.0
94814.686,91.0
94824.704,88.0
94833.089,84.0
94843.105,88.0
94853.119,84.0
94863.147,102.0
94873.163,88.0
94883.178,84.0
94893.195,84.0
94903.211,83.0
94913.23,87.0
94923.631,110.0
94934.032,101.0
94944.051,86.0
94954.072,92.0
94964.089,90.0
94974.108,79.0
94984.13,102.0
94994.148,94.0
95004.167,84.0
95014.184,128.0
95024.202,136.0
95034.222,134.0
95044.242,93.0
95054.263,103.0
95064.303,148.0
95074.327,137.0
95084.347,144.0
95094.369,141.0
95104.392,112.0
95114.41,101.0
95124.435,95.0
95134.453,143.0
95144.47,126.0
95154.511,99.0
95164.534,91.0
95174.557,109.0
95184.576,81.0
95194.594,83.0
95204.612,83.0
95214.631,104.0
95224.655,110.0
95233.095,83.0
95243.898,90.0
95253.917,86.0
95263.94,125.0
95273.978,145.0
95284.001,91.0
95294.022,140.0
95304.038,90.0
95314.059,88.0
95324.149,86.0
95334.167,83.0
95344.19,88.0
95354.208,84.0
95364.228,84.0
95374.267,84.0
95384.285,83.0
95394.307,129.0
95404.333,88.0
95414.351,115.0
95424.368,91.0
95434.388,83.0
95444.407,86.0
95454.45,85.0
95464.474,95.0
95474.494,101.0
95484.534,98.0
95494.552,106.0
95504.57,87.0
95514.595,88.0
95524.626,107.0
95534.646,103.0
95544.667,87.0
95553.098,91.0
95563.116,81.0
95573.131,84.0
95583.15,91.0
95593.167,90.0
95603.182,80.0
95613.197,87.0
95623.214,87.0
95633.23,83.0
95643.756,93.0
95653.915,92.0
95663.931,82.0
95673.949,86.0
95683.968,81.0
95694.059,85.0
95704.081,81.0
95714.1,127.0
95724.123,122.0
95734.146,105.0
95744.168,87.0
95754.188,92.0
95764.211,141.0
95774.229,82.0
95784.248,105.0
95794.265,103.0
95804.283,100.0
95814.328,83.0
95824.351,90.0
95834.4,93.0
95844.419,83.0
95854.437,86.0
95864.454,81.0
95874.501,97.0
95884.52,86.0
95894.552,110.0
95904.57,88.0
95914.589,85.0
95924.609,96.0
95934.626,86.0
95944.648,92.0
95953.148,113.0
95963.169,85.0
95973.188,85.0
95983.207,79.0
95993.225,81.0
96003.658,142.0
96014.259,122.0
96024.274,95.0
96034.29,94.0
96044.318,145.0
96054.339,135.0
96064.362,117.0
96074.379,108.0
96084.399,89.0
96094.418,83.0
96104.444,156.0
96114.461,107.0
96124.483,105.0
96134.502,105.0
96144.534,105.0
96154.551,97.0
96164.57,82.0
96174.588,88.0
96184.612,99.0
96194.632,87.0
96204.674,119.0
96213.108,81.0
96223.127,83.0
96233.145,104.0
96243.647,138.0
96254.023,105.0
96264.038,86.0
96274.057,84.0
96284.075,87.0
96294.092,92.0
96304.115,119.0
96314.131,83.0
96324.148,93.0
96334.167,88.0
96344.185,90.0
96354.203,94.0
96364.224,112.0
96374.248,101.0
96384.271,106.0
96394.29,83.0
96404.309,96.0
96414.327,144.0
96424.346,131.0
96434.371,102.0
96444.39,91.0
96454.429,88.0
96464.447,83.0
96474.464,134.0
96484.486,142.0
96494.598,93.0
96504.616,94.0
96514.634,93.0
96524.718,82.0
96533.111,92.0
96543.127,105.0
96553.968,102.0
96563.987,84.0
96574.005,85.0
96584.021,121.0
96594.035,82.0
96604.053,143.0
96614.101,132.0
96624.12,102.0
96634.15,81.0
96644.168,99.0
96654.187,83.0
96664.212,81.0
96674.229,83.0
96684.248,83.0
96694.273,86.0
96704.292,94.0
96714.311,88.0
96724.333,101.0
96734.352,99.0
96744.372,88.0
96754.39,88.0
96764.408,85.0
96774.441,85.0
96784.484,95.0
96794.501,88.0
96804.521,85.0
96814.619,91.0
96824.637,82.0
96834.656,84.0
96844.678,91.0
96854.696,101.0
96864.715,120.0
96874.737,103.0
96883.119,84.0
96893.139,86.0
96903.162,88.0
96913.178,82.0
96923.198,84.0
96933.216,84.0
96944.058,84.0
96954.075,82.0
96964.093,99.0
96974.114,96.0
96984.129,84.0
96994.147,86.0
97004.165,85.0
97014.183,83.0
97024.209,120.0
97034.227,84.0
97044.245,84.0
97054.271,86.0
97064.29,88.0
97074.319,86.0
97084.342,104.0
97094.362,125.0
97104.381,120.0
97114.403,81.0
97124.422,88.0
97134.447,84.0
97144.469,82.0
97154.488,84.0
97164.507,121.0
97174.525,83.0
97184.554,97.0
97194.572,81.0
97204.599,155.0
97214.622,114.0
97224.639,83.0
97234.656,139.0
97244.675,141.0
97254.7,145.0
97264.737,139.0
97274.772,130.0
97283.125,92.0
97293.142,115.0
97303.161,145.0
97313.197,138.0
97323.997,92.0
97334.188,107.0
97344.207,131.0
97354.226,132.0
97364.246,101.0
97374.263,136.0
97384.289,138.0
97394.306,122.0
97404.327,92.0
97414.343,93.0
97424.361,94.0
97434.38,100.0
97444.402,86.0
97454.424,119.0
97464.439,146.0
97474.459,116.0
97484.478,96.0
97494.509,82.0
97504.538,106.0
97514.561,82.0
97524.579,89.0
97534.597,151.0
97544.638,81.0
97554.668,102.0
97564.694,89.0
97574.713,99.0
97584.731,88.0
97594.754,79.0
97603.135,85.0
97613.158,88.0
97623.179,89.0
97633.197,95.0
97643.217,84.0
97653.235,89.0
97663.263,81.0
97673.282,88.0
97683.887,140.0
97694.181,130.0
97704.2,85.0
97714.218,92.0
97724.239,84.0
97734.259,84.0
97744.281,92.0
97754.299,88.0
97764.327,82.0
97774.366,81.0
97784.388,91.0
97794.406,86.0
97804.429,128.0
97814.447,159.0
97824.467,81.0
97834.486,88.0
97844.502,86.0
97854.521,81.0
97864.566,85.0
97874.588,82.0
97884.608,80.0
97894.64,82.0
97904.658,82.0
97914.678,83.0
97924.706,105.0
97934.731,112.0
97944.752,81.0
97954.774,84.0
97963.193,92.0
97973.211,149.0
97983.234,134.0
97993.251,128.0
98003.286,127.0
98013.303,134.0
98023.32,127.0
98033.337,117.0
98044.106,118.0
98054.131,117.0
98064.149,135.0
98074.166,122.0
98084.184,112.0
98094.202,97.0
98104.226,158.0
98114.244,122.0
98124.263,135.0
98134.309,133.0
98144.328,85.0
98154.346,123.0
98164.369,91.0
98174.397,117.0
98184.415,132.0
98194.437,120.0
98204.456,110.0
98214.485,99.0
98224.508,85.0
98234.528,87.0
98244.549,120.0
98254.57,128.0
98264.59,89.0
98274.607,124.0
98284.63,97.0
98294.649,97.0
98304.674,94.0
98314.702,88.0
98323.139,123.0
98333.157,109.0
98343.186,118.0
98353.207,128.0
98363.244,115.0
98373.263,110.0
98383.285,86.0
98393.305,92.0
98403.822,97.0
98413.844,108.0
98423.861,102.0
98433.88,96.0
98443.9,92.0
98453.921,115.0
98463.941,95.0
98473.958,92.0
98483.978,91.0
98493.997,122.0
98504.014,104.0
98514.032,112.0
98524.05,94.0
98534.061,113.0
98544.086,109.0
98554.105,115.0
98564.129,109.0
98574.154,104.0
98584.19,101.0
98594.207,81.0
98604.225,83.0
98614.242,121.0
98624.26,97.0
98634.313,104.0
98644.337,105.0
98654.363,108.0
98664.381,101.0
98674.4,96.0
98684.417,86.0
98694.453,91.0
98704.476,84.0
98714.501,99.0
98724.52,110.0
98734.541,102.0
98744.563,116.0
98754.584,83.0
98764.607,85.0
98774.636,112.0
98784.653,85.0
98794.672,86.0
98804.759,82.0
98813.145,92.0
98823.179,113.0
98833.206,89.0
98843.248,104.0
98853.268,99.0
98863.29,109.0
98873.309,94.0
98883.845,98.0
98893.877,117.0
98904.043,115.0
98914.064,102.0
98924.081,88.0
98934.1,83.0
98944.119,118.0
98954.138,133.0
98964.158,137.0
98974.179,83.0
98984.198,89.0
98994.217,87.0
99004.241,103.0
99014.257,99.0
99024.281,142.0
99034.3,86.0
99044.32,86.0
99054.339,94.0
99064.369,99.0
99074.388,122.0
99084.43,121.0
99094.452,87.0
99104.472,83.0
99114.511,84.0
99124.536,91.0
99134.56,98.0
99144.578,83.0
99154.599,82.0
99164.617,89.0
99174.636,84.0
99184.658,122.0
99194.676,82.0
99204.696,82.0
99213.158,81.0
99223.184,97.0
99233.201,84.0
99243.937,114.0
99253.982,115.0
99264.019,85.0
99274.036,101.0
99284.052,102.0
99294.07,114.0
99304.091,88.0
99314.11,83.0
99324.129,97.0
99334.147,154.0
99344.165,82.0
99354.184,81.0
99364.202,92.0
99374.233,88.0
99384.252,119.0
99394.281,107.0
99404.3,87.0
99414.316,81.0
99424.363,107.0
99434.384,94.0
99444.403,83.0
99454.422,123.0
99464.445,136.0
99474.462,96.0
99484.491,96.0
99494.52,112.0
99504.538,119.0
99514.559,132.0
99524.577,135.0
99534.599,121.0
99544.624,142.0
99554.649,132.0
99564.668,85.0
99574.691,91.0
99584.711,82.0
99593.16,89.0
99605.53,138.0
99615.548,99.0
99623.362,86.0
99633.381,88.0
99643.399,85.0
99653.416,84.0
99663.44,99.0
99673.459,89.0
99683.479,88.0
99693.52,88.0
99703.538,140.0
99713.559,123.0
99723.845,132.0
99734.169,135.0
99744.188,96.0
99754.208,91.0
99764.227,88.0
99774.247,99.0
99784.271,115.0
99794.294,89.0
99804.311,83.0
99814.334,83.0
99824.353,81.0
99834.373,82.0
99844.396,119.0
99854.416,100.0
99864.436,97.0
99874.458,89.0
99884.479,92.0
99894.498,101.0
99904.525,100.0
99914.545,90.0
99924.576,96.0
99934.595,90.0
99944.615,130.0
99954.654,132.0
99964.692,87.0
99974.712,117.0
99984.732,99.0
99993.163,138.0
100003.182,167.0
100016.799,133.0
100023.224,132.0
100033.243,134.0
100043.261,122.0
100053.28,128.0
100063.299,87.0
100073.317,91.0
100083.896,124.0
100094.139,136.0
100104.156,91.0
100114.173,85.0
100124.19,92.0
100134.209,93.0
100144.231,85.0
100154.249,83.0
100164.268,88.0
100174.293,84.0
100184.313,83.0
100194.352,96.0
100204.375,110.0
100214.399,107.0
100224.418,101.0
100234.436,86.0
100244.473,91.0
100254.493,132.0
100264.517,109.0
100274.535,130.0
100284.555,89.0
100294.574,127.0
100304.592,87.0
100314.612,125.0
100324.635,109.0
100334.653,110.0
100344.672,83.0
100354.691,146.0
100364.711,151.0
100373.163,159.0
100386.725,81.0
100393.207,83.0
100403.231,117.0
100413.251,90.0
100423.272,150.0
100433.291,128.0
100443.475,124.0
100454.311,119.0
100464.326,81.0
100474.346,81.0
100484.365,88.0
100494.382,81.0
100504.432,94.0
100514.451,101.0
100524.469,102.0
100534.506,108.0
100544.524,96.0
100554.542,89.0
100564.565,89.0
100574.582,86.0
100584.601,88.0
100594.622,136.0
100604.642,112.0
100614.661,89.0
100624.685,84.0
100634.702,93.0
100644.723,114.0
100653.181,101.0
100663.204,137.0
100673.228,132.0
100683.879,120.0
100694.026,114.0
100704.044,136.0
100714.062,91.0
100724.08,94.0
100734.099,103.0
100744.122,83.0
100754.141,87.0
100764.158,86.0
100774.177,88.0
100784.21,87.0
100794.229,83.0
100804.247,121.0
100814.266,116.0
100822.312,93.0
100833.165,86.0
100843.183,84.0
100853.207,84.0
100863.225,87.0
100873.242,82.0
100883.257,83.0
100893.271,86.0
100903.288,84.0
100913.324,83.0
100923.961,144.0
100933.98,138.0
100943.997,83.0
100954.015,85.0
100964.032,85.0
100974.051,89.0
100984.073,91.0
100994.089,88.0
101004.105,108.0
101014.121,93.0
101024.141,88.0
101034.159,89.0
101044.176,112.0
101054.191,110.0
101064.225,97.0
101074.244,135.0
101084.261,131.0
101094.276,81.0
101104.299,80.0
101114.319,90.0
101124.338,86.0
101134.36,88.0
101144.379,121.0
101154.397,91.0
101164.457,98.0
101174.48,114.0
101184.498,84.0
101194.525,87.0
101204.559,83.0
101214.579,81.0
101224.605,105.0
101234.624,96.0
101244.644,82.0
101254.663,120.0
101264.684,82.0
101274.703,83.0
101284.727,94.0
101294.746,112.0
101304.765,95.0
101313.183,82.0
101323.202,91.0
101333.232,101.0
101343.254,130.0
101353.273,105.0
101363.291,87.0
101373.309,155.0
101383.327,128.0
101393.355,131.0
101404.002,96.0
101414.064,92.0
101424.082,110.0
101434.101,113.0
101444.117,135.0
101454.134,132.0
101464.157,120.0
101474.177,81.0
101484.194,81.0
101494.211,84.0
101504.229,86.0
101514.247,86.0
101524.27,88.0
101534.295,107.0
101544.312,89.0
101554.333,89.0
101564.367,86.0
101574.39,80.0
101584.415,102.0
101594.481,89.0
101604.506,85.0
101614.527,88.0
101624.546,85.0
101634.563,82.0
101644.611,117.0
101654.63,91.0
101664.65,96.0
101674.672,101.0
101684.689,83.0
101694.709,83.0
101704.735,86.0
101713.177,87.0
101723.196,82.0
101733.235,81.0
101743.255,98.0
101753.274,98.0
101763.736,88.0
101774.127,97.0
101784.143,94.0
101794.161,98.0
101804.18,94.0
101814.197,82.0
101824.22,83.0
101834.239,95.0
101844.257,83.0
101854.277,83.0
101864.294,81.0
101874.312,96.0
101884.331,84.0
101894.349,128.0
101904.4,85.0
101914.418,84.0
101924.435,84.0
101934.453,83.0
101944.491,125.0
101954.52,84.0
101964.539,91.0
101974.559,88.0
101984.577,86.0
101994.6,84.0
102004.626,83.0
102014.643,105.0
102024.675,140.0
102034.695,123.0
102044.714,101.0
102054.732,111.0
102064.762,90.0
102073.184,94.0
102083.212,84.0
102093.231,107.0
102103.249,96.0
102113.267,85.0
102124.395,143.0
102134.42,95.0
102144.438,136.0
102154.456,131.0
102164.473,130.0
102174.5,84.0
102184.524,120.0
102194.554,84.0
102204.573,87.0
102214.592,90.0
102224.611,89.0
102234.631,91.0
102244.654,124.0
102254.671,109.0
102264.69,82.0
102274.711,91.0
102284.73,87.0
102293.187,87.0
102306.872,85.0
102313.227,91.0
102323.254,84.0
102333.281,81.0
102343.3,88.0
102353.319,82.0
102364.101,108.0
102374.123,103.0
102384.142,82.0
102394.159,84.0
102404.192,83.0
102414.213,83.0
102424.234,88.0
102434.252,83.0
102444.274,82.0
102454.294,83.0
102464.31,89.0
102474.352,83.0
102484.375,95.0
102494.393,115.0
102504.411,81.0
102514.431,81.0
102524.452,86.0
102534.472,107.0
102544.496,102.0
102554.518,110.0
102564.538,97.0
102574.557,88.0
102584.58,86.0
102594.598,80.0
102604.621,128.0
102614.641,112.0
102624.661,132.0
102634.681,132.0
102644.699,127.0
102654.72,126.0
102664.744,87.0
102673.19,122.0
102683.207,91.0
102693.244,84.0
102703.264,86.0
102713.285,87.0
102724.135,97.0
102734.159,108.0
102744.176,92.0
102754.196,83.0
102764.214,92.0
102774.233,86.0
102784.256,125.0
102794.275,86.0
102804.296,89.0
102814.316,92.0
102824.348,83.0
102834.367,80.0
102844.395,87.0
102854.412,116.0
102864.432,88.0
102874.459,96.0
102884.479,89.0
102894.497,93.0
102904.521,82.0
102914.554,84.0
102924.576,84.0
102934.599,88.0
102944.619,100.0
102954.637,105.0
102964.659,115.0
102974.678,114.0
102984.694,82.0
102994.714,97.0
103004.733,114.0
103014.755,133.0
103024.782,143.0
103033.191,129.0
103043.224,85.0
103053.241,84.0
103063.259,86.0
103073.277,84.0
103083.927,86.0
103093.965,103.0
103103.98,84.0
103113.999,83.0
103124.016,82.0
103134.033,85.0
103144.056,129.0
103154.074,86.0
103164.091,86.0
103174.11,83.0
103184.127,119.0
103194.146,82.0
103204.173,103.0
103214.192,96.0
103224.211,85.0
103234.23,82.0
103244.25,88.0
103254.268,81.0
103264.31,83.0
103274.328,83.0
103284.374,88.0
103294.391,87.0
103304.412,83.0
103314.429,84.0
103324.504,96.0
103334.522,103.0
103344.539,83.0
103354.58,86.0
103364.598,86.0
103374.617,88.0
103384.64,109.0
103394.658,83.0
103404.678,85.0
103414.707,85.0
103424.727,84.0
103434.747,83.0
103444.773,137.0
103454.806,116.0
103464.825,84.0
103473.2,86.0
103483.245,85.0
103493.261,87.0
103503.276,86.0
103513.319,88.0
103523.336,84.0
103533.354,91.0
103543.374,84.0
103553.409,85.0
103564.092,113.0
103574.165,105.0
103584.183,118.0
103594.202,81.0
103604.22,97.0
103614.264,81.0
103624.284,84.0
103634.301,96.0
103644.346,97.0
103654.364,84.0
103664.386,84.0
103674.404,84.0
103684.426,143.0
103694.443,108.0
103704.461,83.0
103714.496,83.0
103724.512,88.0
103734.548,83.0
103744.571,86.0
103754.589,89.0
103764.606,86.0
103774.624,83.0
103784.641,85.0
103794.658,84.0
103804.684,112.0
103814.717,109.0
103824.736,86.0
103834.753,85.0
103844.776,90.0
103853.203,92.0
103863.221,81.0
103873.239,89.0
103883.258,85.0
103894.136,91.0
103904.157,85.0
103914.174,97.0
103924.2,143.0
103934.225,102.0
103944.246,135.0
103954.264,130.0
103964.29,134.0
103974.309,130.0
103984.354,97.0
103994.372,88.0
104004.391,81.0
104014.411,81.0
104024.428,128.0
104034.454,133.0
104044.478,104.0
104054.498,107.0
104064.517,100.0
104074.553,95.0
104084.57,99.0
104094.588,93.0
104104.612,89.0
104114.633,84.0
104124.651,101.0
104134.669,86.0
104144.689,105.0
104154.708,84.0
104164.732,135.0
104174.75,110.0
104184.767,83.0
104193.227,102.0
104203.247,101.0
104213.972,97.0
104223.998,90.0
104234.018,95.0
104244.035,83.0
104254.053,81.0
104264.071,87.0
104274.089,134.0
104284.155,94.0
104294.177,107.0
104304.195,87.0
104314.213,98.0
104324.231,94.0
104334.249,93.0
104344.272,96.0
104354.292,95.0
104364.312,109.0
104374.331,102.0
104384.354,92.0
104394.374,103.0
104404.424,126.0
104414.443,92.0
104424.462,91.0
104434.483,99.0
104444.523,102.0
104454.545,114.0
104464.568,121.0
104474.587,99.0
104484.612,101.0
104494.633,99.0
104504.672,81.0
104514.696,87.0
104524.747,101.0
104534.767,112.0
104544.788,82.0
104553.21,103.0
104563.233,102.0
104573.252,100.0
104583.268,107.0
104593.29,104.0
104603.308,138.0
104613.327,96.0
104623.346,84.0
104633.368,86.0
104643.527,107.0
104654.214,102.0
104664.232,95.0
104674.25,99.0
104684.267,115.0
104694.285,83.0
104704.308,128.0
104714.326,108.0
104724.343,131.0
104734.36,133.0
104744.387,128.0
104754.411,89.0
104764.434,112.0
104774.453,119.0
104784.474,87.0
104794.525,86.0
104804.592,87.0
104814.641,89.0
104824.667,84.0
104834.69,84.0
104844.712,84.0
104854.739,88.0
104864.76,81.0
104874.824,82.0
104884.86,112.0
104894.881,110.0
104904.905,82.0
104913.24,97.0
104923.261,82.0
104933.28,86.0
104943.296,92.0
104953.314,83.0
104963.359,84.0
104973.376,84.0
104983.396,83.0
104993.415,85.0
105004.049,107.0
105014.074,123.0
105024.094,83.0
105034.111,82.0
105044.131,86.0
105054.149,81.0
105064.168,90.0
105074.186,85.0
105084.204,89.0
105094.241,84.0
105104.259,84.0
105114.276,80.0
105124.294,107.0
105134.312,107.0
105144.331,84.0
105154.351,84.0
105164.379,101.0
105174.396,92.0
105184.422,106.0
105194.453,88.0
105204.471,90.0
105214.491,97.0
105224.509,91.0
105234.536,84.0
105244.569,144.0
105254.589,102.0
105264.634,101.0
105274.654,84.0
105284.68,94.0
105294.707,109.0
105304.73,140.0
105314.75,128.0
105324.774,87.0
105334.794,84.0
105344.982,90.0
105353.246,88.0
105363.84,112.0
105374.103,107.0
105384.123,89.0
105394.142,96.0
105404.164,83.0
105414.183,83.0
105424.209,84.0
105434.229,87.0
105444.249,81.0
105454.268,83.0
105464.287,90.0
105474.307,82.0
105484.331,94.0
105494.351,121.0
105504.376,81.0
105514.397,86.0
105524.465,82.0
105534.485,83.0
105544.508,117.0
105554.547,81.0
105564.565,80.0
105574.586,81.0
105584.603,101.0
105594.624,83.0
105604.648,97.0
105614.668,128.0
105624.687,92.0
105634.706,101.0
105644.726,83.0
105654.744,101.0
105664.771,89.0
105674.791,82.0
105683.231,83.0
105693.248,95.0
105703.284,86.0
105713.302,93.0
105724.137,115.0
105734.164,111.0
105744.181,89.0
105754.203,98.0
105764.226,86.0
105774.253,88.0
105784.274,84.0
105794.299,93.0
105804.317,86.0
105814.337,135.0
105824.365,107.0
105834.394,81.0
105844.415,104.0
105854.436,109.0
105864.455,102.0
105874.475,130.0
105884.494,118.0
105894.514,134.0
105904.539,132.0
105914.557,130.0
105924.577,135.0
105934.598,130.0
105944.618,133.0
105954.637,132.0
105964.663,138.0
105974.684,99.0
105984.704,87.0
105994.725,84.0
106004.744,87.0
106014.765,83.0
106024.788,86.0
106034.809,95.0
106043.237,83.0
106053.272,83.0
106063.288,83.0
106073.328,83.0
106083.888,117.0
106094.099,121.0
106104.137,87.0
106114.156,82.0
106124.198,83.0
106134.215,95.0
106144.237,82.0
106154.255,83.0
106164.275,84.0
106174.297,82.0
106184.331,81.0
106194.349,109.0
106204.374,147.0
106214.393,109.0
106224.417,84.0
106234.437,84.0
106244.46,81.0
106254.505,101.0
106264.527,93.0
106274.546,99.0
106284.585,104.0
106294.603,103.0
106304.626,92.0
106314.649,106.0
106324.682,95.0
106334.705,104.0
106344.724,82.0
106354.755,94.0
106364.774,97.0
106374.804,94.0
106384.827,121.0
106393.245,84.0
106403.27,135.0
106413.29,128.0
106423.312,128.0
106433.331,102.0
106444.008,122.0
106454.252,110.0
106464.269,113.0
106474.287,101.0
106484.304,128.0
106494.321,135.0
106504.349,120.0
106514.37,116.0
106524.39,135.0
106534.408,99.0
106544.426,110.0
106554.445,89.0
106564.471,158.0
106574.49,101.0
106584.511,81.0
106594.536,84.0
106604.555,83.0
106614.578,81.0
106624.607,112.0
106634.628,89.0
106644.662,96.0
106654.682,82.0
106664.787,82.0
106674.807,83.0
106684.837,142.0
106694.854,127.0
106704.875,88.0
106713.243,101.0
106723.27,82.0
106733.291,81.0
106743.312,84.0
106753.332,83.0
106763.362,80.0
106773.381,100.0
106783.402,102.0
106793.42,85.0
106804.06,104.0
106814.085,113.0
106824.101,82.0
106834.119,83.0
106844.137,94.0
106854.157,84.0
106864.191,87.0
106874.23,99.0
106884.251,92.0
106894.287,104.0
106904.312,99.0
106914.352,96.0
106924.374,117.0
106934.392,118.0
106944.411,104.0
106954.435,82.0
106964.458,96.0
106974.48,83.0
106984.502,84.0
106994.521,104.0
107004.551,131.0
107014.569,136.0
107024.588,127.0
107034.607,121.0
107044.64,102.0
107054.66,106.0
107064.68,128.0
107074.699,94.0
107084.738,127.0
107094.76,88.0
107104.783,86.0
107114.813,82.0
107123.25,84.0
107133.271,85.0
107146.937,84.0
107153.44,88.0
107166.984,139.0
107174.127,94.0
107184.145,84.0
107194.162,85.0
107204.208,83.0
107214.226,84.0
107224.246,112.0
107234.267,84.0
107244.29,86.0
107254.332,83.0
107264.352,92.0
107274.371,89.0
107284.406,106.0
107294.426,109.0
107304.449,87.0
107314.467,84.0
107324.491,92.0
107334.538,83.0
107344.56,84.0
107354.579,91.0
107364.599,146.0
107374.619,82.0
107384.638,125.0
107394.66,108.0
107404.69,104.0
107414.712,114.0
107424.734,82.0
107434.77,82.0
107444.794,166.0
107454.817,85.0
107464.843,100.0
107473.255,95.0
107483.274,81.0
107493.291,91.0
107503.311,84.0
107513.332,111.0
107523.764,137.0
107534.151,111.0
107544.169,86.0
107554.191,102.0
107564.216,79.0
107574.234,81.0
107584.321,84.0
107594.34,94.0
107604.373,83.0
107614.395,84.0
107624.414,83.0
107634.433,84.0
107644.477,161.0
107654.503,113.0
107664.525,82.0
107674.547,83.0
107684.57,83.0
107694.59,84.0
107704.614,81.0
107714.632,110.0
107724.658,81.0
107734.677,86.0
107744.71,83.0
107754.729,82.0
107764.751,85.0
107774.769,119.0
107784.787,99.0
107794.804,104.0
107804.822,92.0
107814.846,94.0
107824.872,94.0
107834.893,133.0
107843.288,133.0
107853.306,136.0
107863.326,82.0
107873.347,90.0
107887.009,110.0
107894.147,99.0
107904.164,133.0
107914.183,85.0
107924.253,83.0
107934.272,96.0
107944.295,94.0
107954.341,88.0
107964.359,83.0
107974.393,91.0
107984.412,81.0
107994.44,83.0
108004.468,109.0
108014.486,100.0
108024.522,84.0
